OOIBase32 Version 1.0.0.8 Data File
++++++++++++++++++++++++++++++++++++
Date: Monday, January 21, 1980, 09:20:44
User: Valued Ocean Optics Customer
Spectrometer Serial Number: Unknown
Spectrometer Channel: Master
Integration Time (msec): 20
Spectra Averaged: 20
Boxcar Smoothing: 0
Correct for Electrical Dark: Disabled
Time Normalized: Disabled
Dual-beam Reference: Disabled
Reference Channel: Master
>>>>>Begin Spectral Data<<<<<
179.00	0.0000
179.38	0.0000
179.75	54.8000
180.13	56.8500
180.51	56.1000
180.88	56.7500
181.26	57.1000
181.64	57.4500
182.02	56.1000
182.39	57.2500
182.77	56.3500
183.15	56.0500
183.52	55.4500
183.90	56.9000
184.28	56.8000
184.65	56.1500
185.03	56.9000
185.41	56.4500
185.78	56.3500
186.16	57.3000
186.53	56.2000
186.91	56.3500
187.29	57.5500
187.66	56.4000
188.04	57.2500
188.42	58.4000
188.79	58.2000
189.17	58.9000
189.55	56.8000
189.92	56.8000
190.30	58.0500
190.67	57.3000
191.05	57.2500
191.43	57.3500
191.80	57.6000
192.18	56.3500
192.56	57.0000
192.93	56.7000
193.31	57.9000
193.68	57.2500
194.06	58.1000
194.44	57.4500
194.81	58.4000
195.19	57.8000
195.56	57.1500
195.94	57.4500
196.32	58.1500
196.69	57.2500
197.07	57.5500
197.44	57.7500
197.82	57.8500
198.19	57.8000
198.57	58.2000
198.95	57.8000
199.32	57.9500
199.70	58.2000
200.07	58.4000
200.45	57.9500
200.82	57.4000
201.20	58.6500
201.57	58.5500
201.95	57.5000
202.33	57.7000
202.70	58.9000
203.08	57.4000
203.45	57.6500
203.83	58.1500
204.20	58.2500
204.58	57.6500
204.95	58.1500
205.33	57.4500
205.70	58.4000
206.08	58.3500
206.45	59.0000
206.83	57.3000
207.20	58.5500
207.58	57.9500
207.95	57.5500
208.33	58.3500
208.70	58.0000
209.08	57.5500
209.45	58.1500
209.83	59.2500
210.20	57.3000
210.58	57.3000
210.95	57.6500
211.33	57.3500
211.70	58.1000
212.08	57.6000
212.45	58.6500
212.83	57.7000
213.20	58.7000
213.58	57.7500
213.95	57.3500
214.33	58.0000
214.70	57.6500
215.07	57.4500
215.45	57.7500
215.82	57.1000
216.20	58.0000
216.57	57.8000
216.95	58.0500
217.32	59.2500
217.70	58.9000
218.07	58.8500
218.44	58.0000
218.82	57.1000
219.19	58.2500
219.57	57.9000
219.94	58.1000
220.32	58.2000
220.69	57.7500
221.06	58.5000
221.44	57.3000
221.81	59.3000
222.19	59.3000
222.56	57.9000
222.93	58.8000
223.31	58.4000
223.68	58.2500
224.06	57.2500
224.43	57.8500
224.80	58.4000
225.18	58.3000
225.55	57.5500
225.92	59.2000
226.30	58.5000
226.67	58.1000
227.05	58.2500
227.42	57.9500
227.79	57.5500
228.17	58.6500
228.54	58.0000
228.91	57.5500
229.29	58.2000
229.66	58.3000
230.03	57.5000
230.41	58.7500
230.78	59.2000
231.15	57.9500
231.53	58.2000
231.90	58.3000
232.27	58.0500
232.65	58.0500
233.02	57.9500
233.39	58.0500
233.77	58.0000
234.14	57.2000
234.51	57.6000
234.89	57.7000
235.26	58.1000
235.63	57.4000
236.01	58.0000
236.38	59.0000
236.75	58.0000
237.12	58.5000
237.50	59.0500
237.87	59.5500
238.24	58.3500
238.62	59.0500
238.99	58.0500
239.36	57.8000
239.73	57.5500
240.11	58.5500
240.48	57.8500
240.85	58.0500
241.23	57.4000
241.60	58.8000
241.97	58.9000
242.34	58.1000
242.72	58.5500
243.09	58.3500
243.46	58.0000
243.83	59.2500
244.21	57.6500
244.58	58.5000
244.95	57.8500
245.32	58.0000
245.70	58.0500
246.07	59.3000
246.44	57.5000
246.81	58.0000
247.18	58.5500
247.56	59.4500
247.93	58.4000
248.30	58.5500
248.67	58.1000
249.04	57.9000
249.42	58.6500
249.79	58.7500
250.16	59.2500
250.53	59.1000
250.90	57.8000
251.28	58.9500
251.65	57.3500
252.02	58.3000
252.39	58.6500
252.76	58.7500
253.14	58.4000
253.51	58.6500
253.88	58.7000
254.25	58.2500
254.62	59.1500
254.99	58.5500
255.37	57.7500
255.74	58.4500
256.11	58.5000
256.48	59.6000
256.85	59.2000
257.22	58.7500
257.59	57.9000
257.97	58.8500
258.34	58.2500
258.71	58.2500
259.08	58.3500
259.45	58.5000
259.82	58.6500
260.19	57.9500
260.56	58.4000
260.94	58.5500
261.31	58.1500
261.68	58.6000
262.05	58.8500
262.42	58.5500
262.79	58.3000
263.16	58.1000
263.53	58.1500
263.90	58.6500
264.28	58.6000
264.65	59.0000
265.02	58.3000
265.39	58.0500
265.76	58.6000
266.13	58.6000
266.50	58.6500
266.87	57.7500
267.24	58.9500
267.61	58.7500
267.98	57.9000
268.35	59.2000
268.72	58.1000
269.09	58.8000
269.46	57.8500
269.84	59.3000
270.21	58.5500
270.58	58.6000
270.95	57.8500
271.32	58.2000
271.69	58.3000
272.06	57.6000
272.43	58.4500
272.80	58.9500
273.17	57.8500
273.54	58.3500
273.91	58.8500
274.28	59.0000
274.65	58.2500
275.02	58.2000
275.39	58.2000
275.76	58.5000
276.13	57.0000
276.50	58.9000
276.87	59.2500
277.24	58.3000
277.61	59.2000
277.98	59.0000
278.35	58.6000
278.72	59.0500
279.09	58.4500
279.46	58.8000
279.83	57.6000
280.20	58.5000
280.57	58.5000
280.94	59.0000
281.31	57.7000
281.67	57.9000
282.04	58.8000
282.41	58.9000
282.78	57.8500
283.15	57.4000
283.52	59.5500
283.89	60.8000
284.26	58.8000
284.63	58.8000
285.00	58.7500
285.37	58.8500
285.74	58.8000
286.11	58.9000
286.48	58.9000
286.85	58.7500
287.21	58.5000
287.58	58.7500
287.95	59.3000
288.32	59.6000
288.69	59.2000
289.06	58.8500
289.43	58.6000
289.80	58.7500
290.17	57.1500
290.54	58.7000
290.90	59.0000
291.27	59.4000
291.64	58.5000
292.01	58.8500
292.38	58.5000
292.75	58.5000
293.12	59.2000
293.48	58.6500
293.85	59.0000
294.22	58.3000
294.59	58.9500
294.96	59.0000
295.33	58.4500
295.70	59.3000
296.06	59.0000
296.43	59.0500
296.80	59.8000
297.17	59.5000
297.54	60.4000
297.91	60.2000
298.27	59.1500
298.64	59.6500
299.01	59.7000
299.38	61.0000
299.75	59.5000
300.11	61.2000
300.48	60.9000
300.85	60.3000
301.22	60.0500
301.59	61.1000
301.95	61.7000
302.32	61.3000
302.69	61.5500
303.06	61.9000
303.43	62.3500
303.79	62.6000
304.16	62.9500
304.53	64.1000
304.90	63.7000
305.26	63.7500
305.63	62.9500
306.00	63.2000
306.37	64.2500
306.73	63.8000
307.10	65.4500
307.47	65.8500
307.84	65.3000
308.20	66.5500
308.57	66.4500
308.94	67.8500
309.31	66.8500
309.67	68.2000
310.04	67.9500
310.41	67.6000
310.77	67.9000
311.14	68.1000
311.51	70.1500
311.88	70.2500
312.24	70.9500
312.61	71.2500
312.98	71.3500
313.34	72.2000
313.71	72.1500
314.08	72.6500
314.44	73.1000
314.81	71.7500
315.18	72.8500
315.55	74.4000
315.91	74.3500
316.28	75.5000
316.65	75.8500
317.01	76.7500
317.38	78.0000
317.75	76.9000
318.11	76.8000
318.48	76.2000
318.84	77.6500
319.21	79.0000
319.58	80.5500
319.94	80.1000
320.31	80.6500
320.68	80.9500
321.04	81.7500
321.41	81.3000
321.78	82.3500
322.14	82.1000
322.51	83.9000
322.87	84.7500
323.24	83.7000
323.61	84.9000
323.97	85.5000
324.34	85.2500
324.70	86.2500
325.07	86.0500
325.44	86.3500
325.80	86.9000
326.17	89.1000
326.53	89.0500
326.90	88.7000
327.27	90.1500
327.63	90.2000
328.00	90.8500
328.36	91.3000
328.73	91.7000
329.09	92.0500
329.46	93.7500
329.83	92.6000
330.19	92.6500
330.56	94.2500
330.92	95.3500
331.29	95.2500
331.65	98.2000
332.02	94.9000
332.38	95.8500
332.75	96.3500
333.11	97.7000
333.48	98.6500
333.84	99.6000
334.21	100.8500
334.58	99.0000
334.94	99.5000
335.31	100.5000
335.67	101.6500
336.04	101.9500
336.40	100.7500
336.77	101.9500
337.13	101.6000
337.50	102.1000
337.86	103.0500
338.22	105.7500
338.59	105.7500
338.95	105.0000
339.32	106.7000
339.68	106.2500
340.05	105.5000
340.41	106.7000
340.78	106.5500
341.14	108.2000
341.51	108.3000
341.87	109.1500
342.24	111.4000
342.60	112.2500
342.96	112.6500
343.33	114.0000
343.69	112.4500
344.06	116.7500
344.42	117.2000
344.79	115.5000
345.15	117.3000
345.51	117.7500
345.88	119.1500
346.24	118.9500
346.61	121.1500
346.97	122.6000
347.34	122.4500
347.70	124.4500
348.06	121.1500
348.43	126.4000
348.79	125.3000
349.16	126.5500
349.52	128.1000
349.88	127.7000
350.25	129.0000
350.61	127.9000
350.97	129.9500
351.34	128.5000
351.70	133.1000
352.07	132.0500
352.43	131.1000
352.79	133.4000
353.16	134.1000
353.52	135.4500
353.88	135.3500
354.25	135.9000
354.61	135.9000
354.97	136.9000
355.34	138.5000
355.70	137.0500
356.06	138.1500
356.43	143.5000
356.79	140.9000
357.15	142.9500
357.52	143.4000
357.88	143.7500
358.24	144.2500
358.60	147.5500
358.97	149.1000
359.33	148.7500
359.69	149.4000
360.06	150.9000
360.42	152.1500
360.78	154.1000
361.14	154.3500
361.51	154.4500
361.87	159.9000
362.23	161.9500
362.60	161.7500
362.96	162.1500
363.32	161.7500
363.68	167.6000
364.05	166.2500
364.41	167.3000
364.77	172.7500
365.13	170.2500
365.50	173.5000
365.86	177.1000
366.22	181.6000
366.58	179.2000
366.95	181.7000
367.31	180.7500
367.67	185.4000
368.03	180.7000
368.39	187.2000
368.76	186.6000
369.12	181.7500
369.48	185.3500
369.84	185.9000
370.20	193.8000
370.57	190.6000
370.93	192.0500
371.29	190.9500
371.65	195.0000
372.01	193.7000
372.38	193.8500
372.74	198.0500
373.10	191.7500
373.46	197.4500
373.82	200.7000
374.18	199.6000
374.55	199.8500
374.91	205.1000
375.27	210.7500
375.63	205.4000
375.99	204.5000
376.35	210.4000
376.71	205.2500
377.08	211.4500
377.44	216.1000
377.80	229.6000
378.16	223.1000
378.52	229.6000
378.88	234.5000
379.24	229.8500
379.60	238.9000
379.97	245.3000
380.33	243.9000
380.69	237.3500
381.05	238.9000
381.41	251.7500
381.77	245.2000
382.13	249.3500
382.49	248.5500
382.85	243.0000
383.21	255.2500
383.57	239.0000
383.94	259.6500
384.30	259.9500
384.66	255.7500
385.02	245.2000
385.38	255.9000
385.74	252.7500
386.10	260.1500
386.46	275.8500
386.82	266.1000
387.18	276.9500
387.54	277.5000
387.90	271.1500
388.26	280.8500
388.62	280.1000
388.98	263.8000
389.34	270.5000
389.70	272.4500
390.06	252.0500
390.42	255.8000
390.78	283.7000
391.14	303.6000
391.50	295.4500
391.86	311.6000
392.22	321.9500
392.58	310.7500
392.94	276.5000
393.30	284.4500
393.66	294.0000
394.02	298.2000
394.38	263.3500
394.74	282.8500
395.10	285.4500
395.46	297.7500
395.82	298.8500
396.18	285.3000
396.54	325.6000
396.90	332.8500
397.26	325.6500
397.62	317.4500
397.98	348.7000
398.34	308.9500
398.70	312.8500
399.05	283.0000
399.41	284.7000
399.77	297.3500
400.13	309.1500
400.49	317.8500
400.85	315.9000
401.21	294.3500
401.57	327.7500
401.93	305.3500
402.29	297.3500
402.65	306.6500
403.00	319.5500
403.36	321.3500
403.72	315.8500
404.08	358.3500
404.44	325.9000
404.80	337.4000
405.16	341.8000
405.52	335.9000
405.87	342.4000
406.23	339.5000
406.59	300.9000
406.95	317.2500
407.31	322.4000
407.67	326.0000
408.03	329.5000
408.38	338.3500
408.74	365.3000
409.10	365.0000
409.46	333.0500
409.82	342.5000
410.17	336.7000
410.53	325.0000
410.89	336.9000
411.25	303.4500
411.61	323.9500
411.97	350.5000
412.32	352.6000
412.68	359.5000
413.04	333.0000
413.40	302.7500
413.75	321.3000
414.11	324.1000
414.47	316.5500
414.83	359.0500
415.19	329.7000
415.54	311.7000
415.90	349.2000
416.26	337.0000
416.62	348.9000
416.97	308.4000
417.33	352.6000
417.69	350.8000
418.05	337.4000
418.40	317.5500
418.76	321.9500
419.12	357.2500
419.48	364.0000
419.83	390.5500
420.19	348.2500
420.55	358.9000
420.90	420.2500
421.26	395.6500
421.62	352.3500
421.98	388.6500
422.33	407.0000
422.69	420.4500
423.05	396.2000
423.40	342.4500
423.76	333.7000
424.12	372.9000
424.47	373.2000
424.83	347.2000
425.19	349.1500
425.54	347.7500
425.90	373.0500
426.26	388.1500
426.61	404.3000
426.97	319.0500
427.33	379.9000
427.68	369.5500
428.04	420.8500
428.40	428.8000
428.75	456.7500
429.11	403.7000
429.47	467.7000
429.82	459.8500
430.18	428.2000
430.53	404.7500
430.89	402.5500
431.25	384.6500
431.60	396.5000
431.96	379.6500
432.31	379.2000
432.67	419.3000
433.03	447.1000
433.38	407.8500
433.74	410.1000
434.09	412.2500
434.45	405.7500
434.81	378.4500
435.16	416.7500
435.52	383.1000
435.87	376.1500
436.23	375.1500
436.58	371.7500
436.94	396.5000
437.30	419.0000
437.65	427.7500
438.01	431.7500
438.36	400.9000
438.72	385.6000
439.07	369.9500
439.43	391.9500
439.78	427.2000
440.14	478.9000
440.49	421.1000
440.85	436.4500
441.20	454.7000
441.56	429.9500
441.91	465.7000
442.27	424.4000
442.62	433.1000
442.98	453.8000
443.33	437.5000
443.69	445.4000
444.04	439.1000
444.40	397.1000
444.75	450.1500
445.11	475.0500
445.46	483.6500
445.82	471.5000
446.17	433.5000
446.53	458.7000
446.88	508.3500
447.23	418.6500
447.59	421.3000
447.94	420.6500
448.30	432.3500
448.65	426.2500
449.01	456.6000
449.36	452.6000
449.72	472.8500
450.07	495.3000
450.42	463.6000
450.78	437.7000
451.13	464.0500
451.49	436.4500
451.84	431.4000
452.19	412.2000
452.55	421.7000
452.90	436.8500
453.26	478.0500
453.61	484.0500
453.96	403.3500
454.32	460.6000
454.67	441.2000
455.02	394.9000
455.38	422.4500
455.73	427.6500
456.09	472.5000
456.44	478.5000
456.79	477.7500
457.15	457.2500
457.50	450.3000
457.85	450.9000
458.21	465.3000
458.56	462.2500
458.91	450.7500
459.27	417.4500
459.62	443.4500
459.97	454.9000
460.32	461.0000
460.68	437.6500
461.03	412.0000
461.38	418.7500
461.74	465.6500
462.09	448.9500
462.44	434.7500
462.80	454.9500
463.15	457.4500
463.50	456.6000
463.85	483.3000
464.21	501.1500
464.56	523.9000
464.91	467.1000
465.26	466.3000
465.62	475.2000
465.97	496.7500
466.32	476.5000
466.67	473.4500
467.03	463.3500
467.38	470.0500
467.73	467.8500
468.08	477.8000
468.44	480.4500
468.79	460.0000
469.14	439.0500
469.49	453.1000
469.85	458.3500
470.20	500.0000
470.55	508.6000
470.90	503.7500
471.25	469.5500
471.61	500.4000
471.96	502.4000
472.31	533.7000
472.66	534.2500
473.01	543.7000
473.36	554.9000
473.72	557.9500
474.07	573.3500
474.42	576.3500
474.77	582.2000
475.12	589.5500
475.47	597.6500
475.83	597.1500
476.18	584.9500
476.53	579.3000
476.88	619.5500
477.23	618.6000
477.58	609.6000
477.93	609.9000
478.28	612.6000
478.64	630.7500
478.99	652.1500
479.34	664.9000
479.69	674.5000
480.04	682.4500
480.39	680.3500
480.74	674.0000
481.09	716.2500
481.44	707.5000
481.79	697.2000
482.15	702.8500
482.50	716.9000
482.85	721.7500
483.20	761.9500
483.55	781.2500
483.90	799.6500
484.25	919.5000
484.60	1101.9000
484.95	1226.8500
485.30	1222.9500
485.65	1049.6000
486.00	968.9500
486.35	873.7000
486.70	820.5500
487.05	822.3500
487.40	800.7500
487.75	792.9000
488.10	795.9000
488.45	785.6500
488.80	790.8000
489.15	805.7500
489.50	801.9500
489.85	807.0000
490.20	798.3500
490.55	808.5000
490.90	806.4000
491.25	807.8500
491.60	796.0000
491.95	796.4500
492.30	810.3000
492.65	815.9500
493.00	813.4000
493.35	816.5000
493.70	816.0000
494.05	809.4500
494.40	821.6500
494.75	840.5500
495.10	852.5500
495.45	865.3000
495.80	869.1500
496.15	851.1000
496.50	823.2000
496.84	817.6000
497.19	818.2000
497.54	837.3500
497.89	843.4000
498.24	846.4500
498.59	858.6500
498.94	843.4500
499.29	837.2500
499.64	835.8500
499.99	850.8500
500.33	860.2500
500.68	863.8500
501.03	870.7000
501.38	869.7500
501.73	883.3500
502.08	873.3500
502.43	880.2500
502.77	876.3500
503.12	866.9500
503.47	860.8500
503.82	869.2000
504.17	868.1500
504.52	880.3500
504.86	880.8000
505.21	886.6000
505.56	879.8500
505.91	869.7000
506.26	863.4500
506.61	867.3000
506.95	878.0000
507.30	877.4500
507.65	885.3500
508.00	875.3000
508.35	873.5000
508.69	872.3000
509.04	885.5500
509.39	881.7000
509.74	886.2000
510.08	889.7500
510.43	896.7500
510.78	888.4500
511.13	888.6500
511.47	893.0500
511.82	898.8500
512.17	891.9000
512.52	894.3500
512.86	897.5000
513.21	897.4500
513.56	894.3000
513.91	896.6500
514.25	887.3000
514.60	887.9500
514.95	894.3500
515.30	900.0000
515.64	903.8000
515.99	915.6500
516.34	907.3500
516.68	909.5000
517.03	906.1000
517.38	909.3000
517.72	928.9500
518.07	929.5000
518.42	931.5500
518.76	933.5000
519.11	925.2000
519.46	922.9000
519.80	909.7000
520.15	916.9500
520.50	928.0000
520.84	918.3500
521.19	922.5000
521.54	926.9500
521.88	915.2000
522.23	930.0000
522.58	929.1000
522.92	936.5000
523.27	940.3500
523.61	937.4500
523.96	934.5500
524.31	947.6000
524.65	942.2500
525.00	944.5500
525.34	927.5000
525.69	933.9500
526.04	944.3500
526.38	950.6000
526.73	945.3500
527.07	951.0000
527.42	956.9500
527.76	973.5500
528.11	976.8500
528.46	966.9500
528.80	968.2000
529.15	958.1000
529.49	955.4500
529.84	958.7500
530.18	962.1500
530.53	971.7500
530.87	960.4000
531.22	960.9000
531.56	967.4000
531.91	981.9000
532.25	989.1000
532.60	996.1500
532.94	995.9000
533.29	991.6500
533.63	996.5000
533.98	993.7000
534.32	999.1000
534.67	1014.9500
535.01	1003.0000
535.36	983.6000
535.70	988.9000
536.05	989.1500
536.39	1003.5500
536.74	996.0000
537.08	1000.4000
537.43	1002.6500
537.77	1022.3500
538.12	1032.4500
538.46	1028.0000
538.80	1028.9500
539.15	1008.2500
539.49	1021.9000
539.84	1034.9000
540.18	1029.1500
540.53	1025.1000
540.87	1030.3000
541.21	1047.8500
541.56	1041.2500
541.90	1044.5500
542.25	1031.7000
542.59	1035.6000
542.93	1051.2500
543.28	1047.4000
543.62	1054.0000
543.97	1055.5500
544.31	1049.0500
544.65	1044.0000
545.00	1040.8000
545.34	1043.4000
545.68	1043.2000
546.03	1046.2000
546.37	1074.6000
546.71	1098.9500
547.06	1101.7000
547.40	1098.0000
547.74	1098.4000
548.09	1074.0000
548.43	1058.8000
548.77	1052.2000
549.12	1052.0500
549.46	1043.1000
549.80	1045.9500
550.15	1046.9000
550.49	1052.6500
550.83	1071.7500
551.17	1092.2500
551.52	1089.4000
551.86	1084.0500
552.20	1084.7000
552.55	1095.5000
552.89	1093.1000
553.23	1081.1500
553.57	1082.7000
553.92	1085.8500
554.26	1109.9000
554.60	1103.1500
554.94	1113.9500
555.29	1110.1000
555.63	1107.2000
555.97	1097.2500
556.31	1097.8500
556.66	1096.0500
557.00	1087.6500
557.34	1088.2000
557.68	1085.9000
558.02	1080.6500
558.37	1092.1500
558.71	1105.5000
559.05	1120.0000
559.39	1140.2500
559.73	1153.0000
560.08	1148.7000
560.42	1158.1500
560.76	1143.9500
561.10	1133.1500
561.44	1124.0500
561.78	1137.1000
562.13	1149.4000
562.47	1141.2500
562.81	1151.2500
563.15	1154.7500
563.49	1157.1000
563.83	1160.9000
564.17	1152.2500
564.52	1148.4500
564.86	1144.4000
565.20	1145.4500
565.54	1149.3000
565.88	1157.7000
566.22	1176.2500
566.56	1185.8000
566.90	1209.9000
567.24	1234.4500
567.59	1248.1000
567.93	1277.1500
568.27	1312.4500
568.61	1350.5000
568.95	1364.0000
569.29	1368.3500
569.63	1412.9000
569.97	1437.2000
570.31	1452.0000
570.65	1501.0000
570.99	1501.8500
571.33	1482.0000
571.67	1450.1500
572.01	1473.9500
572.35	1521.7000
572.69	1562.2000
573.03	1578.8500
573.37	1605.5000
573.71	1629.9000
574.05	1606.9500
574.39	1583.4500
574.73	1565.2000
575.07	1556.5500
575.41	1575.3000
575.75	1577.7500
576.09	1628.0000
576.43	1707.2500
576.77	1785.9500
577.11	1802.0500
577.45	1755.9500
577.79	1661.9500
578.13	1646.7500
578.47	1609.3000
578.81	1628.4000
579.15	1627.5500
579.49	1626.2500
579.83	1709.0500
580.17	1850.0500
580.51	1958.3000
580.85	2021.3000
581.19	1917.8000
581.53	1809.7500
581.87	1688.7000
582.20	1582.6000
582.54	1504.7000
582.88	1485.9000
583.22	1504.5500
583.56	1583.0000
583.90	1670.3000
584.24	1722.0500
584.58	1708.5500
584.92	1666.2000
585.25	1609.7000
585.59	1569.0500
585.93	1574.6000
586.27	1613.2500
586.61	1597.4500
586.95	1606.5000
587.29	1586.6500
587.62	1539.2500
587.96	1491.1000
588.30	1454.6000
588.64	1424.5000
588.98	1413.7000
589.31	1402.8000
589.65	1365.4000
589.99	1344.9000
590.33	1353.0000
590.67	1346.6000
591.01	1367.6000
591.34	1443.1500
591.68	1516.6500
592.02	1596.1500
592.36	1600.2000
592.69	1564.8500
593.03	1514.5000
593.37	1494.3000
593.71	1486.9000
594.04	1506.9500
594.38	1504.8500
594.72	1479.4500
595.06	1430.0500
595.39	1414.3500
595.73	1398.4000
596.07	1415.6500
596.41	1426.5000
