OOIBase32 Version 1.0.0.8 Data File
++++++++++++++++++++++++++++++++++++
Date: Monday, January 21, 1980, 09:20:44
User: Valued Ocean Optics Customer
Spectrometer Serial Number: Unknown
Spectrometer Channel: Master
Integration Time (msec): 20
Spectra Averaged: 20
Boxcar Smoothing: 0
Correct for Electrical Dark: Disabled
Time Normalized: Disabled
Dual-beam Reference: Disabled
Reference Channel: Master
>>>>>Begin Spectral Data<<<<<
179.00	0.0000
179.38	0.0000
179.75	54.7000
180.13	56.0500
180.51	56.5500
180.88	56.9500
181.26	56.8000
181.64	56.9500
182.02	56.2500
182.39	57.2500
182.77	56.3500
183.15	55.9000
183.52	56.5500
183.90	55.5500
184.28	55.5000
184.65	56.1500
185.03	56.6500
185.41	56.3500
185.78	55.3500
186.16	55.8000
186.53	54.9500
186.91	56.8500
187.29	56.8000
187.66	57.0500
188.04	57.3000
188.42	57.0500
188.79	57.0000
189.17	58.2000
189.55	57.3000
189.92	58.1000
190.30	57.0500
190.67	56.0000
191.05	56.3500
191.43	56.9500
191.80	56.7500
192.18	56.9500
192.56	57.7500
192.93	57.6500
193.31	57.0500
193.68	56.3000
194.06	57.2500
194.44	57.1000
194.81	57.2500
195.19	57.5000
195.56	58.0500
195.94	57.4000
196.32	56.9000
196.69	56.9500
197.07	56.8500
197.44	57.9500
197.82	57.2000
198.19	58.5000
198.57	56.5500
198.95	57.3500
199.32	57.0500
199.70	57.3000
200.07	58.0000
200.45	56.8000
200.82	57.1000
201.20	57.9000
201.57	57.7500
201.95	57.5500
202.33	58.0000
202.70	57.8000
203.08	57.6500
203.45	57.9500
203.83	58.1000
204.20	57.9000
204.58	56.7500
204.95	57.4000
205.33	58.4500
205.70	57.4500
206.08	57.2000
206.45	56.9000
206.83	56.8000
207.20	58.1000
207.58	57.8500
207.95	57.4500
208.33	57.3000
208.70	58.0000
209.08	57.3000
209.45	58.1000
209.83	56.4000
210.20	58.0000
210.58	58.7000
210.95	58.1000
211.33	58.2500
211.70	57.3000
212.08	57.6500
212.45	56.6500
212.83	58.1000
213.20	57.4500
213.58	57.3000
213.95	58.2500
214.33	57.6000
214.70	57.6500
215.07	57.7000
215.45	58.6500
215.82	56.8000
216.20	57.1000
216.57	58.6500
216.95	57.3000
217.32	58.7000
217.70	57.3500
218.07	58.0500
218.44	57.3500
218.82	58.0000
219.19	57.9000
219.57	57.6500
219.94	57.3000
220.32	56.7500
220.69	57.4000
221.06	57.4000
221.44	57.4000
221.81	58.1500
222.19	58.0000
222.56	59.0000
222.93	58.3000
223.31	57.6500
223.68	56.6000
224.06	56.0500
224.43	57.9500
224.80	57.2500
225.18	57.6000
225.55	58.0500
225.92	58.0000
226.30	56.9500
226.67	56.6500
227.05	57.3000
227.42	58.2000
227.79	58.3500
228.17	58.0000
228.54	57.7000
228.91	57.9000
229.29	56.7500
229.66	57.7500
230.03	57.8500
230.41	57.7000
230.78	57.6000
231.15	57.9500
231.53	57.8500
231.90	57.4500
232.27	56.6000
232.65	58.4000
233.02	57.6000
233.39	58.0000
233.77	57.5500
234.14	57.5500
234.51	58.5500
234.89	57.5500
235.26	57.3000
235.63	58.2500
236.01	57.4000
236.38	58.2500
236.75	56.8500
237.12	57.6500
237.50	56.4000
237.87	58.2500
238.24	57.5500
238.62	58.8000
238.99	58.6500
239.36	57.5000
239.73	57.2500
240.11	57.2500
240.48	57.6000
240.85	57.7500
241.23	57.8500
241.60	58.2500
241.97	58.1500
242.34	57.1000
242.72	57.2500
243.09	57.6500
243.46	57.3000
243.83	58.2500
244.21	57.8000
244.58	57.6500
244.95	57.7500
245.32	56.5500
245.70	59.6000
246.07	58.9000
246.44	56.9000
246.81	57.3500
247.18	58.1000
247.56	58.8500
247.93	58.2000
248.30	57.9000
248.67	57.6000
249.04	57.8000
249.42	58.6500
249.79	58.8500
250.16	57.1000
250.53	58.1500
250.90	57.8000
251.28	58.2500
251.65	57.4000
252.02	57.4000
252.39	56.9500
252.76	57.4500
253.14	58.1000
253.51	57.8500
253.88	58.6000
254.25	58.3500
254.62	57.5000
254.99	57.5500
255.37	57.6000
255.74	57.7000
256.11	58.2000
256.48	58.6500
256.85	57.7000
257.22	56.9000
257.59	58.9000
257.97	57.7500
258.34	57.3000
258.71	57.9500
259.08	57.8000
259.45	57.2000
259.82	58.6500
260.19	58.0000
260.56	57.5500
260.94	57.4000
261.31	57.5000
261.68	57.7000
262.05	58.4000
262.42	57.9500
262.79	57.7000
263.16	58.0000
263.53	58.0000
263.90	58.0500
264.28	57.4000
264.65	58.0000
265.02	58.1500
265.39	58.4500
265.76	57.7500
266.13	57.7000
266.50	58.2500
266.87	58.2500
267.24	56.7000
267.61	57.3500
267.98	57.4500
268.35	58.8500
268.72	58.1500
269.09	57.6000
269.46	57.6500
269.84	58.3000
270.21	58.9000
270.58	57.7000
270.95	57.5000
271.32	58.0000
271.69	58.3000
272.06	59.3500
272.43	57.6500
272.80	57.8000
273.17	58.2500
273.54	58.3500
273.91	57.0500
274.28	58.9000
274.65	58.0000
275.02	57.5000
275.39	58.6000
275.76	58.8500
276.13	57.9500
276.50	58.5500
276.87	57.8000
277.24	57.1500
277.61	58.1000
277.98	57.9000
278.35	58.2500
278.72	58.5500
279.09	58.6000
279.46	57.6500
279.83	58.0000
280.20	57.9000
280.57	58.5500
280.94	58.5500
281.31	57.8500
281.67	57.6000
282.04	56.5000
282.41	57.5500
282.78	57.7000
283.15	57.3000
283.52	57.9500
283.89	59.6000
284.26	57.9500
284.63	56.9500
285.00	56.4000
285.37	57.3500
285.74	57.9500
286.11	57.4000
286.48	57.6500
286.85	58.0500
287.21	57.3000
287.58	58.3000
287.95	57.6500
288.32	57.9000
288.69	58.1500
289.06	58.6000
289.43	58.1500
289.80	58.3500
290.17	57.0000
290.54	58.7500
290.90	58.1000
291.27	59.0500
291.64	57.6500
292.01	58.2500
292.38	57.2500
292.75	57.7500
293.12	58.1000
293.48	57.1500
293.85	58.3000
294.22	58.4000
294.59	56.9500
294.96	57.8500
295.33	58.0000
295.70	59.1000
296.06	58.1500
296.43	57.5500
296.80	57.4500
297.17	58.8000
297.54	57.6500
297.91	57.8500
298.27	57.6500
298.64	57.6500
299.01	58.6500
299.38	58.5000
299.75	57.5500
300.11	58.1000
300.48	58.1500
300.85	57.8000
301.22	57.8000
301.59	57.8500
301.95	58.5500
302.32	57.7500
302.69	57.2000
303.06	58.0500
303.43	58.0000
303.79	58.6500
304.16	57.3500
304.53	58.1000
304.90	59.1500
305.26	57.9000
305.63	58.1500
306.00	58.3000
306.37	58.4500
306.73	57.8000
307.10	56.9500
307.47	57.8000
307.84	57.5000
308.20	58.2000
308.57	57.5000
308.94	58.3000
309.31	57.6500
309.67	57.8000
310.04	58.3500
310.41	57.9000
310.77	59.1000
311.14	57.9000
311.51	57.7000
311.88	57.8500
312.24	58.2500
312.61	58.6500
312.98	58.9500
313.34	58.0500
313.71	58.1500
314.08	57.8000
314.44	58.3000
314.81	58.9500
315.18	57.6000
315.55	57.8000
315.91	57.5000
316.28	57.9000
316.65	56.7500
317.01	56.8000
317.38	57.7000
317.75	60.9000
318.11	59.1500
318.48	58.3500
318.84	57.2000
319.21	57.1000
319.58	56.9000
319.94	57.2500
320.31	56.9500
320.68	58.8500
321.04	57.3500
321.41	57.9000
321.78	58.3500
322.14	58.0000
322.51	58.1500
322.87	58.7000
323.24	57.2000
323.61	58.1000
323.97	58.0500
324.34	58.9000
324.70	58.5000
325.07	57.4000
325.44	57.9500
325.80	57.3500
326.17	56.6000
326.53	57.3500
326.90	57.0000
327.27	58.3000
327.63	57.5500
328.00	57.5000
328.36	57.3000
328.73	57.0500
329.09	58.0000
329.46	58.1500
329.83	57.5000
330.19	57.4500
330.56	57.7000
330.92	57.9000
331.29	57.7500
331.65	57.6000
332.02	57.8000
332.38	58.0000
332.75	58.1500
333.11	57.9000
333.48	58.0000
333.84	57.4500
334.21	56.9500
334.58	57.0500
334.94	57.4500
335.31	57.6000
335.67	57.7000
336.04	56.9000
336.40	57.4000
336.77	58.1000
337.13	56.8000
337.50	58.4000
337.86	57.7500
338.22	56.7000
338.59	57.1000
338.95	58.5500
339.32	58.0500
339.68	57.4500
340.05	57.4000
340.41	56.6500
340.78	57.8000
341.14	57.5000
341.51	57.6000
341.87	58.4000
342.24	57.5500
342.60	58.0000
342.96	57.6500
343.33	57.7000
343.69	57.0500
344.06	57.9000
344.42	57.5000
344.79	57.9500
345.15	57.6000
345.51	57.1000
345.88	56.8500
346.24	57.3500
346.61	58.0500
346.97	57.1500
347.34	57.5500
347.70	57.3500
348.06	57.3000
348.43	57.3500
348.79	57.7000
349.16	58.7000
349.52	58.8500
349.88	58.5500
350.25	57.2500
350.61	58.5000
350.97	57.2000
351.34	57.8500
351.70	58.2500
352.07	58.0500
352.43	57.4500
352.79	58.6000
353.16	58.4000
353.52	58.5500
353.88	58.5000
354.25	57.5500
354.61	58.8000
354.97	57.8500
355.34	58.5000
355.70	58.6000
356.06	58.6500
356.43	57.3000
356.79	57.9500
357.15	57.7000
357.52	59.1000
357.88	56.8500
358.24	58.0000
358.60	57.6000
358.97	58.9500
359.33	57.7000
359.69	57.7500
360.06	57.4000
360.42	57.5000
360.78	58.1000
361.14	57.0500
361.51	57.8500
361.87	57.8000
362.23	58.3500
362.60	58.2000
362.96	57.5000
363.32	57.5500
363.68	58.9000
364.05	58.8000
364.41	57.7000
364.77	58.2500
365.13	57.7000
365.50	57.6000
365.86	58.0000
366.22	59.0000
366.58	56.9000
366.95	57.7500
367.31	59.8000
367.67	58.3000
368.03	57.1500
368.39	58.3000
368.76	57.9500
369.12	58.2500
369.48	58.0000
369.84	58.6000
370.20	58.9000
370.57	58.7000
370.93	58.3500
371.29	58.1000
371.65	56.9500
372.01	58.5000
372.38	56.9500
372.74	58.1000
373.10	58.6000
373.46	57.4500
373.82	58.1500
374.18	58.9500
374.55	58.7500
374.91	58.7500
375.27	57.9500
375.63	58.6000
375.99	58.2000
376.35	58.1500
376.71	57.9500
377.08	57.7000
377.44	58.4000
377.80	58.1000
378.16	57.4500
378.52	58.4000
378.88	57.5500
379.24	57.0500
379.60	57.0000
379.97	58.0000
380.33	58.7000
380.69	57.0000
381.05	57.3500
381.41	58.4500
381.77	58.2000
382.13	57.7000
382.49	57.3000
382.85	57.6000
383.21	57.6500
383.57	58.1500
383.94	58.5500
384.30	58.5500
384.66	58.3000
385.02	58.3500
385.38	57.5500
385.74	56.9000
386.10	57.9000
386.46	57.3500
386.82	57.4500
387.18	57.9500
387.54	57.9000
387.90	57.4000
388.26	57.9500
388.62	57.6500
388.98	57.3000
389.34	58.5500
389.70	57.9000
390.06	57.8000
390.42	58.1500
390.78	57.7000
391.14	57.8000
391.50	57.1000
391.86	58.1500
392.22	57.7000
392.58	58.1500
392.94	58.8500
393.30	58.0000
393.66	58.1500
394.02	57.4500
394.38	57.5000
394.74	58.0000
395.10	57.6500
395.46	57.0000
395.82	57.2500
396.18	57.8500
396.54	57.7000
396.90	57.5000
397.26	58.6000
397.62	57.4500
397.98	57.8500
398.34	58.4500
398.70	57.2500
399.05	58.7000
399.41	57.0000
399.77	57.9000
400.13	57.4500
400.49	57.5000
400.85	58.0500
401.21	57.6500
401.57	57.5500
401.93	57.9000
402.29	56.5500
402.65	57.6000
403.00	58.0000
403.36	58.6000
403.72	58.7500
404.08	58.0500
404.44	58.2500
404.80	58.3000
405.16	57.8000
405.52	57.7500
405.87	58.2000
406.23	59.8000
406.59	58.3500
406.95	58.1500
407.31	57.5500
407.67	57.2500
408.03	57.2000
408.38	59.1500
408.74	59.0000
409.10	58.3500
409.46	57.4500
409.82	58.4000
410.17	58.3500
410.53	58.1500
410.89	57.4000
411.25	58.3500
411.61	57.2500
411.97	57.9500
412.32	58.6000
412.68	58.3500
413.04	57.5000
413.40	58.4000
413.75	59.6500
414.11	58.5000
414.47	58.0000
414.83	57.8500
415.19	57.0500
415.54	57.4000
415.90	58.1000
416.26	57.9500
416.62	58.8000
416.97	56.8000
417.33	57.2000
417.69	57.7000
418.05	58.3000
418.40	57.2000
418.76	58.0500
419.12	57.4500
419.48	57.8500
419.83	58.5500
420.19	57.5500
420.55	57.9000
420.90	58.3500
421.26	57.3500
421.62	58.4000
421.98	57.3500
422.33	57.5000
422.69	57.5000
423.05	57.5000
423.40	57.4500
423.76	57.4000
424.12	57.4000
424.47	58.2500
424.83	58.9000
425.19	58.8500
425.54	58.3500
425.90	58.5500
426.26	57.2500
426.61	57.3500
426.97	57.4500
427.33	59.1000
427.68	57.8000
428.04	57.9000
428.40	58.2500
428.75	57.8500
429.11	56.9000
429.47	57.9500
429.82	58.1000
430.18	57.6000
430.53	58.7500
430.89	58.1500
431.25	58.4000
431.60	58.0000
431.96	58.2500
432.31	58.7000
432.67	58.1000
433.03	57.8000
433.38	58.4000
433.74	59.2000
434.09	58.6500
434.45	59.1000
434.81	58.4000
435.16	59.4000
435.52	59.1500
435.87	58.2000
436.23	57.9500
436.58	58.8000
436.94	57.8500
437.30	57.6500
437.65	58.8500
438.01	58.4000
438.36	58.7000
438.72	57.8500
439.07	57.0000
439.43	57.5500
439.78	58.1500
440.14	58.3500
440.49	57.7000
440.85	58.0500
441.20	59.0500
441.56	58.2500
441.91	58.8500
442.27	58.7500
442.62	57.7000
442.98	57.2500
443.33	57.9500
443.69	58.4000
444.04	70.4000
444.40	59.0000
444.75	59.8500
445.11	57.7500
445.46	57.5500
445.82	58.6500
446.17	58.1500
446.53	57.4500
446.88	57.3500
447.23	57.8000
447.59	57.0000
447.94	57.9500
448.30	57.9000
448.65	58.7500
449.01	57.3000
449.36	57.8000
449.72	57.9500
450.07	57.7000
450.42	58.3500
450.78	58.3500
451.13	58.3000
451.49	58.2000
451.84	58.3000
452.19	58.4500
452.55	56.9000
452.90	58.7000
453.26	59.2000
453.61	58.7000
453.96	57.6500
454.32	58.4000
454.67	57.8500
455.02	58.1500
455.38	57.8500
455.73	58.7500
456.09	57.9000
456.44	57.7000
456.79	57.9000
457.15	57.4000
457.50	57.4500
457.85	58.6000
458.21	57.3000
458.56	58.1500
458.91	58.6500
459.27	58.9000
459.62	59.2000
459.97	59.0500
460.32	57.7000
460.68	58.9500
461.03	58.3500
461.38	58.4500
461.74	57.4000
462.09	57.4500
462.44	58.4500
462.80	57.4000
463.15	58.5000
463.50	59.1500
463.85	57.9000
464.21	58.1000
464.56	57.6000
464.91	59.2000
465.26	57.9000
465.62	56.9500
465.97	59.2000
466.32	60.0500
466.67	57.5000
467.03	58.6500
467.38	57.4000
467.73	58.5500
468.08	57.4000
468.44	58.2500
468.79	58.1000
469.14	58.3500
469.49	57.8500
469.85	58.3000
470.20	58.0500
470.55	57.9000
470.90	58.6000
471.25	58.2000
471.61	57.7500
471.96	58.5000
472.31	57.9500
472.66	58.2500
473.01	58.9500
473.36	57.2500
473.72	58.8000
474.07	57.8000
474.42	58.0500
474.77	56.6000
475.12	57.8500
475.47	57.3000
475.83	57.4000
476.18	57.3500
476.53	58.5500
476.88	57.9500
477.23	58.3500
477.58	57.6500
477.93	58.3500
478.28	58.4000
478.64	58.2000
478.99	57.4500
479.34	58.2000
479.69	59.1500
480.04	58.4500
480.39	58.2500
480.74	58.4500
481.09	58.3000
481.44	58.9500
481.79	58.3000
482.15	57.6500
482.50	57.8000
482.85	57.8500
483.20	57.5000
483.55	58.9500
483.90	58.5000
484.25	58.6000
484.60	57.5500
484.95	57.7000
485.30	58.1000
485.65	58.1500
486.00	58.1000
486.35	57.4500
486.70	58.7000
487.05	59.0000
487.40	57.6500
487.75	58.3000
488.10	58.1000
488.45	57.6500
488.80	57.4000
489.15	58.5000
489.50	57.1500
489.85	58.5000
490.20	58.4500
490.55	58.3500
490.90	57.8500
491.25	57.7500
491.60	59.2000
491.95	58.4500
492.30	58.9000
492.65	57.8500
493.00	58.6500
493.35	58.5000
493.70	58.1500
494.05	57.4000
494.40	57.4500
494.75	58.1500
495.10	56.6000
495.45	58.6500
495.80	57.6500
496.15	57.7500
496.50	58.2000
496.84	58.3500
497.19	58.8500
497.54	58.4500
497.89	57.4500
498.24	58.1500
498.59	58.6500
498.94	58.5000
499.29	57.1500
499.64	57.8000
499.99	58.0000
500.33	57.5000
500.68	58.9500
501.03	58.7000
501.38	57.5000
501.73	57.1000
502.08	57.5500
502.43	57.8500
502.77	58.3500
503.12	59.0000
503.47	57.7000
503.82	58.1000
504.17	57.9500
504.52	58.3000
504.86	57.9500
505.21	58.0500
505.56	60.1500
505.91	58.2500
506.26	57.7000
506.61	57.2000
506.95	57.9000
507.30	57.5000
507.65	58.2500
508.00	58.2500
508.35	56.6500
508.69	57.9500
509.04	58.5500
509.39	57.8500
509.74	59.2500
510.08	57.0500
510.43	57.9500
510.78	57.3500
511.13	57.2000
511.47	58.0000
511.82	58.4500
512.17	58.1500
512.52	57.4000
512.86	57.0000
513.21	58.0000
513.56	58.2000
513.91	58.8000
514.25	59.0000
514.60	58.3500
514.95	58.2500
515.30	58.8000
515.64	58.1000
515.99	58.6500
516.34	59.0000
516.68	58.4000
517.03	58.2500
517.38	57.4000
517.72	57.6000
518.07	58.4500
518.42	58.3000
518.76	58.7500
519.11	59.4000
519.46	58.3000
519.80	58.9500
520.15	59.4500
520.50	58.9500
520.84	58.4000
521.19	58.6000
521.54	58.6000
521.88	59.6500
522.23	57.6500
522.58	58.6000
522.92	58.5500
523.27	57.6500
523.61	58.7000
523.96	58.6500
524.31	59.1000
524.65	58.4000
525.00	59.0500
525.34	58.3500
525.69	58.3500
526.04	60.7500
526.38	58.5000
526.73	59.1500
527.07	59.1500
527.42	58.6500
527.76	58.9000
528.11	58.5000
528.46	59.7500
528.80	58.7000
529.15	58.9500
529.49	59.5500
529.84	59.4500
530.18	59.8000
530.53	60.1500
530.87	59.5000
531.22	59.9500
531.56	60.1000
531.91	60.2500
532.25	60.1500
532.60	60.7500
532.94	60.9000
533.29	60.2500
533.63	60.0000
533.98	60.1500
534.32	60.6500
534.67	59.6000
535.01	60.2000
535.36	60.6500
535.70	60.6000
536.05	61.6500
536.39	60.6000
536.74	61.7000
537.08	61.1500
537.43	61.6000
537.77	62.6000
538.12	61.6000
538.46	61.9500
538.80	60.9500
539.15	63.6500
539.49	63.0000
539.84	62.9500
540.18	63.0000
540.53	62.8500
540.87	62.3500
541.21	64.4500
541.56	63.6000
541.90	63.6000
542.25	64.4000
542.59	64.2000
542.93	63.8000
543.28	65.4000
543.62	65.5000
543.97	66.4000
544.31	65.7500
544.65	65.4000
545.00	66.1500
545.34	66.0500
545.68	65.9000
546.03	67.1000
546.37	66.9500
546.71	67.8500
547.06	67.5500
547.40	68.5500
547.74	69.6000
548.09	69.5500
548.43	68.3000
548.77	69.5500
549.12	68.6500
549.46	69.8500
549.80	70.6500
550.15	70.6500
550.49	71.5500
550.83	72.2000
551.17	72.2000
551.52	71.8500
551.86	73.4500
552.20	73.0500
552.55	73.5500
552.89	74.6000
553.23	74.7500
553.57	75.9000
553.92	75.3000
554.26	77.0500
554.60	77.0000
554.94	78.4500
555.29	77.6500
555.63	78.9500
555.97	79.4000
556.31	79.2000
556.66	79.4000
557.00	79.3000
557.34	80.8500
557.68	81.8000
558.02	81.1000
558.37	82.3000
558.71	83.7000
559.05	84.4500
559.39	85.6500
559.73	86.7500
560.08	86.6000
560.42	87.3500
560.76	88.3000
561.10	87.4500
561.44	89.2000
561.78	89.2000
562.13	89.8500
562.47	91.3000
562.81	92.8500
563.15	92.9500
563.49	93.6000
563.83	95.4000
564.17	95.7000
564.52	94.9000
564.86	95.6500
565.20	96.7000
565.54	99.2000
565.88	100.1000
566.22	101.2000
566.56	102.7000
566.90	103.6500
567.24	105.6000
567.59	107.3500
567.93	109.1000
568.27	112.1500
568.61	114.1500
568.95	116.2000
569.29	117.9500
569.63	120.8500
569.97	124.0500
570.31	125.0500
570.65	129.3000
570.99	129.6500
571.33	131.6000
571.67	130.2500
572.01	134.2000
572.35	136.9000
572.69	142.9000
573.03	142.2000
573.37	145.5500
573.71	148.8000
574.05	149.6000
574.39	149.0000
574.73	151.1000
575.07	149.8000
575.41	154.4500
575.75	155.6500
576.09	160.9500
576.43	168.7000
576.77	176.3000
577.11	177.0500
577.45	176.5500
577.79	172.2000
578.13	173.1500
578.47	172.8000
578.81	172.8500
579.15	176.8500
579.49	180.6500
579.83	189.8000
580.17	202.6000
580.51	213.7000
580.85	220.0500
581.19	214.7000
581.53	206.5500
581.87	199.5000
582.20	190.9500
582.54	187.1500
582.88	189.9500
583.22	192.4000
583.56	201.7000
583.90	213.2500
584.24	220.4500
584.58	221.7000
584.92	218.7500
585.25	216.5000
585.59	213.0500
585.93	218.9500
586.27	224.2500
586.61	224.7000
586.95	227.4000
587.29	225.5000
587.62	224.5500
587.96	221.7500
588.30	220.1500
588.64	219.6000
588.98	222.0000
589.31	222.4000
589.65	220.4000
589.99	219.6000
590.33	223.7500
590.67	223.2500
591.01	230.0500
591.34	238.4500
591.68	254.5500
592.02	265.9500
592.36	268.5000
592.69	266.3500
593.03	263.4000
593.37	263.4500
593.71	265.4000
594.04	270.3500
594.38	272.4000
594.72	272.8000
595.06	270.0000
595.39	268.9500
595.73	267.5000
596.07	276.4500
596.41	279.2500
596.74	292.5500
597.08	284.1500
597.42	291.5000
597.76	300.6000
598.09	310.0000
598.43	312.9000
598.77	314.8500
599.10	320.5500
599.44	322.7500
599.78	326.0000
600.11	327.4000
600.45	330.7000
600.79	326.8000
601.12	326.6000
601.46	331.7000
601.80	339.2000
602.13	342.8500
602.47	352.1500
602.81	355.0000
603.14	350.2000
603.48	349.6500
603.82	348.9000
604.15	349.3000
604.49	360.8500
604.82	362.8000
605.16	365.0000
605.50	364.6000
605.83	371.2500
606.17	373.9000
606.50	383.6500
606.84	381.6500
607.18	385.6000
607.51	378.7500
607.85	383.2500
608.18	380.4500
608.52	387.4500
608.86	396.5500
609.19	403.6500
609.53	403.4500
609.86	406.5000
610.20	407.3000
610.53	407.1000
610.87	404.4500
611.20	415.3500
611.54	408.7000
611.87	413.1000
612.21	419.5500
612.54	417.6000
612.88	419.6000
