OOIBase32 Version 1.0.0.8 Data File
++++++++++++++++++++++++++++++++++++
Date: Monday, January 21, 1980, 09:26:39
User: Valued Ocean Optics Customer
Spectrometer Serial Number: Unknown
Spectrometer Channel: Master
Integration Time (msec): 20
Spectra Averaged: 20
Boxcar Smoothing: 0
Correct for Electrical Dark: Disabled
Time Normalized: Disabled
Dual-beam Reference: Disabled
Reference Channel: Master
>>>>>Begin Spectral Data<<<<<
179.00	0.0000
179.38	0.0000
179.75	54.5000
180.13	55.0000
180.51	55.8500
180.88	57.3500
181.26	56.7500
181.64	57.2000
182.02	56.4500
182.39	56.7000
182.77	55.7000
183.15	56.4000
183.52	56.0500
183.90	57.2000
184.28	56.5000
184.65	57.2500
185.03	55.2000
185.41	57.0500
185.78	55.3500
186.16	56.6000
186.53	56.4500
186.91	56.5500
187.29	56.6500
187.66	56.7500
188.04	56.4000
188.42	57.4000
188.79	56.6500
189.17	58.3000
189.55	57.9500
189.92	57.5000
190.30	57.8500
190.67	56.7000
191.05	56.8500
191.43	56.7500
191.80	57.1500
192.18	57.0000
192.56	57.4500
192.93	56.3500
193.31	57.8000
193.68	56.4500
194.06	56.9000
194.44	57.8500
194.81	56.6000
195.19	57.1000
195.56	57.4000
195.94	57.0000
196.32	57.2000
196.69	58.0500
197.07	56.8500
197.44	57.4000
197.82	57.7000
198.19	57.5500
198.57	57.5000
198.95	57.0000
199.32	57.0000
199.70	57.1000
200.07	57.1500
200.45	56.0000
200.82	56.4500
201.20	57.4000
201.57	56.6000
201.95	57.5500
202.33	58.6500
202.70	58.0500
203.08	57.9000
203.45	57.6500
203.83	57.2000
204.20	58.7500
204.58	58.0500
204.95	56.8500
205.33	57.5000
205.70	58.5500
206.08	57.2000
206.45	57.2500
206.83	57.4000
207.20	57.7000
207.58	57.3000
207.95	57.2000
208.33	57.0500
208.70	58.4000
209.08	56.3000
209.45	57.1000
209.83	58.2000
210.20	58.0500
210.58	56.7500
210.95	58.1000
211.33	56.6000
211.70	57.1500
212.08	58.2000
212.45	58.3000
212.83	57.1000
213.20	57.5000
213.58	57.4500
213.95	58.5500
214.33	57.5500
214.70	57.5500
215.07	58.1500
215.45	57.9500
215.82	57.7000
216.20	56.8500
216.57	57.8000
216.95	57.3500
217.32	59.0000
217.70	57.3000
218.07	57.8000
218.44	58.3500
218.82	57.6000
219.19	57.3500
219.57	57.7500
219.94	58.7000
220.32	57.7500
220.69	57.7000
221.06	57.2000
221.44	57.9500
221.81	58.3500
222.19	58.2000
222.56	57.5500
222.93	58.1000
223.31	57.7500
223.68	58.0000
224.06	57.6000
224.43	57.8500
224.80	57.3000
225.18	57.3000
225.55	57.4500
225.92	59.0000
226.30	57.3000
226.67	57.1500
227.05	56.8500
227.42	57.1500
227.79	58.0500
228.17	57.7000
228.54	57.2500
228.91	57.3500
229.29	57.9500
229.66	58.3000
230.03	57.6500
230.41	57.5500
230.78	58.1500
231.15	58.4000
231.53	57.3000
231.90	57.3500
232.27	58.8000
232.65	57.3500
233.02	56.9000
233.39	58.0500
233.77	56.9500
234.14	57.3500
234.51	57.9500
234.89	58.0500
235.26	57.5000
235.63	56.9500
236.01	57.6500
236.38	58.3500
236.75	57.3500
237.12	57.7000
237.50	57.5000
237.87	58.4500
238.24	57.4500
238.62	59.4500
238.99	58.1000
239.36	57.7500
239.73	57.8500
240.11	58.1500
240.48	57.8000
240.85	56.9000
241.23	56.8500
241.60	56.8500
241.97	57.3500
242.34	58.1000
242.72	58.8000
243.09	58.2000
243.46	58.0500
243.83	57.3500
244.21	58.3000
244.58	58.0500
244.95	57.8500
245.32	57.9000
245.70	57.1500
246.07	57.1000
246.44	58.1000
246.81	57.5000
247.18	56.7500
247.56	59.3000
247.93	56.7500
248.30	57.7000
248.67	58.3000
249.04	58.7000
249.42	57.6500
249.79	58.1000
250.16	57.5000
250.53	57.9000
250.90	58.0000
251.28	57.9500
251.65	56.9000
252.02	57.1000
252.39	58.5500
252.76	58.3000
253.14	57.9000
253.51	57.5500
253.88	55.7000
254.25	57.1000
254.62	56.8500
254.99	57.2500
255.37	59.0500
255.74	58.4500
256.11	58.2000
256.48	57.9000
256.85	57.5000
257.22	57.5500
257.59	57.4500
257.97	58.6500
258.34	58.4000
258.71	57.3000
259.08	57.4500
259.45	57.5000
259.82	58.6500
260.19	57.7500
260.56	58.0000
260.94	57.9500
261.31	58.2000
261.68	57.9000
262.05	58.1500
262.42	57.7000
262.79	56.6000
263.16	57.6000
263.53	57.6000
263.90	57.7500
264.28	57.1500
264.65	57.0500
265.02	57.4500
265.39	57.7500
265.76	58.4000
266.13	58.4000
266.50	58.4000
266.87	57.9000
267.24	57.0500
267.61	57.2000
267.98	57.4000
268.35	57.4000
268.72	57.3000
269.09	57.7000
269.46	56.7500
269.84	57.5000
270.21	57.6000
270.58	58.0000
270.95	57.0000
271.32	57.0500
271.69	58.4000
272.06	58.0000
272.43	57.8000
272.80	57.7500
273.17	58.2500
273.54	57.4000
273.91	57.3500
274.28	57.8500
274.65	56.7000
275.02	57.0000
275.39	57.7000
275.76	56.6500
276.13	57.3500
276.50	59.0500
276.87	57.8500
277.24	57.1500
277.61	58.3000
277.98	58.4500
278.35	57.9500
278.72	58.9000
279.09	58.9500
279.46	58.0500
279.83	57.6000
280.20	57.3500
280.57	58.1000
280.94	57.8500
281.31	57.5000
281.67	57.7500
282.04	57.0000
282.41	57.5500
282.78	57.4500
283.15	57.8500
283.52	57.9000
283.89	59.5500
284.26	57.5500
284.63	57.1000
285.00	57.3500
285.37	57.7500
285.74	57.6000
286.11	57.7500
286.48	58.5000
286.85	58.3000
287.21	56.8500
287.58	57.8000
287.95	57.9500
288.32	58.8000
288.69	56.5500
289.06	57.8000
289.43	58.0500
289.80	58.4500
290.17	57.8000
290.54	57.6500
290.90	56.8500
291.27	59.2500
291.64	57.6500
292.01	58.6000
292.38	58.5000
292.75	58.5000
293.12	56.6500
293.48	56.7000
293.85	56.7000
294.22	58.2500
294.59	57.5000
294.96	57.6000
295.33	57.9000
295.70	58.4000
296.06	58.2500
296.43	57.7000
296.80	57.0500
297.17	58.4000
297.54	57.7000
297.91	58.4500
298.27	57.3500
298.64	58.1000
299.01	58.6500
299.38	59.5000
299.75	57.1000
300.11	58.1000
300.48	56.8500
300.85	56.9500
301.22	57.3500
301.59	57.3000
301.95	58.3000
302.32	57.9500
302.69	57.7000
303.06	58.1000
303.43	57.2500
303.79	57.2500
304.16	57.3000
304.53	58.5500
304.90	57.9000
305.26	57.0500
305.63	57.4000
306.00	57.1500
306.37	57.2000
306.73	57.6500
307.10	57.1000
307.47	58.4500
307.84	57.2500
308.20	58.7000
308.57	58.3500
308.94	57.9500
309.31	58.5500
309.67	58.1000
310.04	57.7000
310.41	56.8500
310.77	59.1000
311.14	59.1000
311.51	57.8000
311.88	58.7500
312.24	58.0000
312.61	58.1000
312.98	57.3500
313.34	57.4500
313.71	58.3500
314.08	56.9000
314.44	57.3000
314.81	58.3500
315.18	57.4000
315.55	58.3500
315.91	56.8500
316.28	58.1000
316.65	58.5000
317.01	57.3500
317.38	57.4500
317.75	59.3500
318.11	58.3000
318.48	57.2000
318.84	57.5500
319.21	58.1000
319.58	57.3500
319.94	57.5500
320.31	57.6000
320.68	58.3000
321.04	56.3000
321.41	57.4500
321.78	57.3000
322.14	57.3000
322.51	57.8000
322.87	58.0500
323.24	57.9000
323.61	57.6500
323.97	57.6500
324.34	57.0000
324.70	57.6500
325.07	57.1500
325.44	57.3500
325.80	58.3000
326.17	58.9000
326.53	58.4500
326.90	56.9000
327.27	55.7000
327.63	58.3000
328.00	58.2000
328.36	57.3500
328.73	58.0000
329.09	57.1000
329.46	58.4500
329.83	57.6500
330.19	58.0500
330.56	58.7500
330.92	58.1000
331.29	57.5000
331.65	56.8000
332.02	58.1500
332.38	57.5500
332.75	58.0500
333.11	57.7500
333.48	57.9500
333.84	57.8500
334.21	58.6500
334.58	59.0000
334.94	56.8500
335.31	58.3000
335.67	58.1000
336.04	58.5000
336.40	58.1500
336.77	57.1000
337.13	56.8000
337.50	57.1000
337.86	57.9500
338.22	58.0000
338.59	59.3000
338.95	57.8500
339.32	57.5500
339.68	57.3500
340.05	57.9500
340.41	57.5000
340.78	57.2500
341.14	58.8000
341.51	57.9000
341.87	57.8500
342.24	57.5000
342.60	57.7500
342.96	57.7500
343.33	57.1000
343.69	57.1500
344.06	58.6000
344.42	57.4500
344.79	58.3000
345.15	57.7000
345.51	57.9000
345.88	57.3000
346.24	57.6000
346.61	57.7500
346.97	57.3500
347.34	57.9500
347.70	56.8500
348.06	58.2000
348.43	57.9500
348.79	58.2500
349.16	57.7000
349.52	57.7500
349.88	57.9000
350.25	56.8500
350.61	58.3000
350.97	57.9000
351.34	57.4500
351.70	56.9500
352.07	57.2000
352.43	57.7500
352.79	58.6500
353.16	58.0000
353.52	57.6000
353.88	58.0000
354.25	57.4500
354.61	57.3500
354.97	56.3500
355.34	57.2000
355.70	57.5500
356.06	57.3500
356.43	56.4500
356.79	58.5500
357.15	57.2000
357.52	57.8000
357.88	57.6500
358.24	57.2500
358.60	57.4500
358.97	58.2500
359.33	58.2000
359.69	57.6500
360.06	57.9000
360.42	58.0500
360.78	56.6000
361.14	56.7000
361.51	58.3500
361.87	57.9500
362.23	57.8000
362.60	57.5500
362.96	58.1000
363.32	57.6000
363.68	57.6500
364.05	58.0000
364.41	57.5500
364.77	57.5500
365.13	57.3500
365.50	57.9500
365.86	58.4500
366.22	57.9500
366.58	57.2000
366.95	57.0500
367.31	59.6000
367.67	57.8000
368.03	57.5000
368.39	57.0000
368.76	57.7500
369.12	57.2000
369.48	56.7500
369.84	57.1000
370.20	57.6500
370.57	57.5000
370.93	57.6000
371.29	58.5000
371.65	58.4000
372.01	57.4500
372.38	57.2500
372.74	57.7000
373.10	59.1000
373.46	56.8500
373.82	57.3500
374.18	58.2500
374.55	58.0000
374.91	58.8500
375.27	58.2500
375.63	58.5500
375.99	57.6000
376.35	57.1500
376.71	58.4000
377.08	58.5000
377.44	57.1500
377.80	57.5500
378.16	57.4000
378.52	57.6500
378.88	58.5500
379.24	56.8000
379.60	57.8000
379.97	57.6500
380.33	57.2000
380.69	57.6500
381.05	56.6500
381.41	58.6500
381.77	57.8500
382.13	57.6500
382.49	57.0000
382.85	57.7500
383.21	57.5000
383.57	57.9000
383.94	57.7500
384.30	57.0500
384.66	58.0500
385.02	59.0000
385.38	56.9000
385.74	57.2000
386.10	58.0000
386.46	57.3000
386.82	58.0000
387.18	57.8000
387.54	57.6000
387.90	57.9500
388.26	58.6500
388.62	58.3500
388.98	57.7500
389.34	58.1500
389.70	57.5500
390.06	57.4500
390.42	57.5500
390.78	57.5000
391.14	58.4500
391.50	57.9500
391.86	58.3000
392.22	58.0500
392.58	58.4000
392.94	58.4500
393.30	56.9500
393.66	58.3000
394.02	58.0000
394.38	57.4500
394.74	57.5000
395.10	57.7000
395.46	56.9500
395.82	56.7500
396.18	57.4000
396.54	56.4500
396.90	58.3500
397.26	57.4500
397.62	57.0000
397.98	58.6500
398.34	57.6000
398.70	57.1000
399.05	58.6000
399.41	57.8000
399.77	57.6000
400.13	57.2000
400.49	57.7000
400.85	57.7500
401.21	57.1500
401.57	57.2500
401.93	57.6000
402.29	57.7000
402.65	57.7000
403.00	57.4500
403.36	58.6000
403.72	57.8500
404.08	57.6500
404.44	57.7000
404.80	58.7500
405.16	57.5000
405.52	56.1500
405.87	58.9500
406.23	58.5000
406.59	57.8500
406.95	56.3000
407.31	57.3500
407.67	57.7500
408.03	57.3000
408.38	57.6500
408.74	56.3500
409.10	58.2000
409.46	58.6500
409.82	57.5500
410.17	58.0500
410.53	57.4500
410.89	57.9000
411.25	57.5500
411.61	57.3000
411.97	57.7000
412.32	58.0000
412.68	58.4500
413.04	58.1500
413.40	58.0000
413.75	58.1000
414.11	57.6500
414.47	58.5000
414.83	57.9000
415.19	57.9000
415.54	58.4500
415.90	58.1000
416.26	57.7500
416.62	57.0000
416.97	58.5000
417.33	57.5500
417.69	57.4000
418.05	58.0000
418.40	57.8500
418.76	57.5500
419.12	57.6000
419.48	58.5000
419.83	57.4000
420.19	57.7000
420.55	57.6500
420.90	57.9000
421.26	57.6500
421.62	58.5000
421.98	57.1500
422.33	57.5500
422.69	57.7000
423.05	57.6000
423.40	57.1500
423.76	58.0500
424.12	57.7000
424.47	59.2500
424.83	58.2500
425.19	57.4500
425.54	59.5000
425.90	58.7500
426.26	58.5500
426.61	58.6000
426.97	57.4000
427.33	57.6000
427.68	57.5000
428.04	57.3000
428.40	58.2500
428.75	58.1500
429.11	58.5500
429.47	58.4500
429.82	58.2000
430.18	57.0500
430.53	57.5500
430.89	58.0000
431.25	58.4000
431.60	57.5500
431.96	58.6000
432.31	57.9000
432.67	57.1000
433.03	58.6000
433.38	58.4500
433.74	58.0500
434.09	59.2000
434.45	58.0500
434.81	58.8500
435.16	57.7500
435.52	58.9000
435.87	57.5500
436.23	58.4000
436.58	57.5000
436.94	56.5500
437.30	57.5500
437.65	57.8000
438.01	57.2000
438.36	57.2000
438.72	57.2500
439.07	58.0500
439.43	57.7500
439.78	58.2500
440.14	57.5500
440.49	58.3000
440.85	58.6500
441.20	58.0500
441.56	58.0000
441.91	57.8500
442.27	58.2000
442.62	57.1500
442.98	58.2000
443.33	58.7000
443.69	58.3500
444.04	69.6000
444.40	58.3000
444.75	59.0500
445.11	57.7000
445.46	57.7000
445.82	57.5500
446.17	58.2000
446.53	57.5000
446.88	57.4000
447.23	57.9500
447.59	58.1500
447.94	58.4000
448.30	57.0000
448.65	58.3500
449.01	57.2000
449.36	57.6500
449.72	57.6500
450.07	58.0500
450.42	58.3000
450.78	57.6500
451.13	57.2500
451.49	56.9000
451.84	56.8500
452.19	58.9000
452.55	58.6500
452.90	58.6500
453.26	58.4500
453.61	58.1000
453.96	57.5000
454.32	58.1500
454.67	57.2000
455.02	58.5500
455.38	56.7500
455.73	57.3500
456.09	58.2000
456.44	58.8500
456.79	58.8500
457.15	56.7500
457.50	57.3500
457.85	56.8500
458.21	57.9500
458.56	58.0500
458.91	57.9500
459.27	57.4000
459.62	57.6000
459.97	57.7500
460.32	58.4500
460.68	59.1500
461.03	58.2500
461.38	56.9500
461.74	56.8500
462.09	57.4000
462.44	58.2000
462.80	57.7000
463.15	58.3500
463.50	57.1500
463.85	58.7000
464.21	57.4500
464.56	57.5000
464.91	57.8000
465.26	57.2500
465.62	57.5500
465.97	57.7500
466.32	59.0000
466.67	57.7500
467.03	57.5000
467.38	58.0000
467.73	58.1500
468.08	58.2000
468.44	58.2500
468.79	57.5000
469.14	57.7000
469.49	58.0500
469.85	58.8000
470.20	57.4500
470.55	57.4000
470.90	58.2000
471.25	57.8500
471.61	57.4000
471.96	58.1500
472.31	57.7000
472.66	57.5000
473.01	58.2000
473.36	57.5500
473.72	57.6000
474.07	57.3500
474.42	57.1500
474.77	58.1000
475.12	57.7500
475.47	57.6000
475.83	57.9500
476.18	58.6000
476.53	57.1000
476.88	57.3500
477.23	58.2000
477.58	58.9000
477.93	57.8500
478.28	58.2500
478.64	58.1000
478.99	57.1500
479.34	58.0000
479.69	58.4500
480.04	57.4500
480.39	57.4000
480.74	57.6000
481.09	57.6000
481.44	59.1000
481.79	57.8500
482.15	57.1000
482.50	58.7500
482.85	59.0500
483.20	57.6000
483.55	57.7500
483.90	57.2500
484.25	57.5000
484.60	58.0500
484.95	59.0000
485.30	57.5000
485.65	57.1000
486.00	57.1000
486.35	56.9500
486.70	57.6500
487.05	57.5500
487.40	57.2000
487.75	59.2000
488.10	57.5500
488.45	57.1500
488.80	58.0000
489.15	56.8000
489.50	58.0500
489.85	58.4000
490.20	57.4500
490.55	56.9000
490.90	57.6500
491.25	57.9500
491.60	57.6500
491.95	58.5000
492.30	56.9500
492.65	57.8500
493.00	57.9500
493.35	57.5000
493.70	57.8500
494.05	57.3500
494.40	57.1500
494.75	57.8000
495.10	56.8000
495.45	57.3500
495.80	58.0000
496.15	58.0000
496.50	58.3500
496.84	59.0000
497.19	58.7500
497.54	58.2500
497.89	56.9500
498.24	58.0000
498.59	57.3500
498.94	58.1500
499.29	57.4000
499.64	58.1000
499.99	57.6000
500.33	57.2500
500.68	59.0500
501.03	58.6500
501.38	57.6000
501.73	58.0500
502.08	57.6000
502.43	57.9000
502.77	58.4000
503.12	57.4000
503.47	57.5000
503.82	57.8500
504.17	59.1000
504.52	58.6000
504.86	57.8500
505.21	57.9500
505.56	59.7000
505.91	57.9500
506.26	57.0000
506.61	57.5500
506.95	57.8500
507.30	57.8000
507.65	58.2500
508.00	57.4500
508.35	58.4000
508.69	57.8000
509.04	57.9000
509.39	57.9500
509.74	57.9500
510.08	58.2000
510.43	57.6000
510.78	57.4000
511.13	57.7000
511.47	58.9000
511.82	59.6000
512.17	58.0000
512.52	58.8000
512.86	58.3000
513.21	57.4500
513.56	57.2000
513.91	58.1500
514.25	58.7000
514.60	59.2000
514.95	59.3000
515.30	58.7500
515.64	57.5000
515.99	57.5500
516.34	57.8000
516.68	58.7500
517.03	58.0500
517.38	57.3000
517.72	58.3000
518.07	58.4500
518.42	58.7000
518.76	58.6500
519.11	59.5500
519.46	58.4500
519.80	57.6500
520.15	58.6000
520.50	59.0000
520.84	58.2000
521.19	58.6000
521.54	58.6500
521.88	59.1000
522.23	58.5000
522.58	58.7500
522.92	60.0000
523.27	58.7500
523.61	58.5000
523.96	58.5500
524.31	59.5500
524.65	58.9000
525.00	59.6000
525.34	58.9500
525.69	59.4000
526.04	60.5500
526.38	59.7500
526.73	59.6500
527.07	59.2500
527.42	60.1000
527.76	60.6500
528.11	59.7500
528.46	61.1000
528.80	60.5000
529.15	60.2500
529.49	61.5500
529.84	60.7000
530.18	60.6500
530.53	59.8000
530.87	60.7000
531.22	61.1500
531.56	61.1000
531.91	62.4500
532.25	62.7000
532.60	62.6500
532.94	61.4000
533.29	63.2000
533.63	61.9000
533.98	63.3500
534.32	63.6000
534.67	63.9000
535.01	64.3000
535.36	63.0000
535.70	63.1000
536.05	62.7500
536.39	63.1000
536.74	64.3000
537.08	64.3000
537.43	65.0500
537.77	65.1000
538.12	66.1500
538.46	67.3500
538.80	65.2000
539.15	67.3000
539.49	66.1500
539.84	67.3000
540.18	66.9500
540.53	67.4500
540.87	66.8500
541.21	68.3500
541.56	67.6000
541.90	69.4000
542.25	68.6000
542.59	69.6000
542.93	70.2000
543.28	70.1000
543.62	70.5000
543.97	72.5000
544.31	71.2000
544.65	70.7500
545.00	72.8500
545.34	71.6000
545.68	72.2000
546.03	71.4000
546.37	74.5000
546.71	75.5000
547.06	74.9500
547.40	76.1000
547.74	74.3500
548.09	75.6500
548.43	75.9000
548.77	77.0000
549.12	76.4500
549.46	78.0000
549.80	79.5000
550.15	78.9000
550.49	79.3000
550.83	81.3000
551.17	81.5000
551.52	80.6000
551.86	82.0000
552.20	82.2000
552.55	83.5000
552.89	84.3000
553.23	85.0000
553.57	85.9000
553.92	85.4500
554.26	86.9500
554.60	87.3500
554.94	87.7500
555.29	89.3000
555.63	89.2500
555.97	90.8000
556.31	90.1500
556.66	90.9000
557.00	91.8500
557.34	91.5500
557.68	92.3500
558.02	93.2000
558.37	93.4000
558.71	97.2000
559.05	97.1500
559.39	98.9000
559.73	101.0500
560.08	102.9000
560.42	102.7500
560.76	102.4000
561.10	102.6500
561.44	104.2000
561.78	103.2500
562.13	106.0000
562.47	106.9000
562.81	109.4500
563.15	109.5000
563.49	109.5500
563.83	110.0000
564.17	112.6500
564.52	114.1500
564.86	114.1000
565.20	115.4500
565.54	116.0000
565.88	117.0000
566.22	120.5000
566.56	121.0500
566.90	122.8000
567.24	127.2500
567.59	129.0500
567.93	131.1500
568.27	135.0500
568.61	138.6000
568.95	139.7000
569.29	142.9000
569.63	146.4500
569.97	147.2000
570.31	152.5000
570.65	157.3000
570.99	158.1500
571.33	158.7500
571.67	157.7500
572.01	162.6500
572.35	167.1000
572.69	171.9000
573.03	175.6000
573.37	179.3500
573.71	182.4000
574.05	182.4000
574.39	181.4000
574.73	182.4500
575.07	183.8000
575.41	187.3500
575.75	189.1000
576.09	197.0500
576.43	207.1500
576.77	213.8000
577.11	216.9000
577.45	215.4500
577.79	210.6000
578.13	211.7000
578.47	211.2000
578.81	214.1000
579.15	214.4000
579.49	216.5000
579.83	229.7000
580.17	247.5000
580.51	260.0000
580.85	268.6500
581.19	261.4000
581.53	250.8000
581.87	241.0000
582.20	232.6000
582.54	225.7000
582.88	227.3000
583.22	231.1500
583.56	244.8000
583.90	256.5500
584.24	265.5000
584.58	265.4000
584.92	262.0000
585.25	258.6500
585.59	255.6000
585.93	260.4000
586.27	268.4000
586.61	270.4500
586.95	271.0500
587.29	272.1500
587.62	268.1000
587.96	265.1000
588.30	261.0000
588.64	259.2500
588.98	260.8000
589.31	262.9500
589.65	260.9000
589.99	259.3500
590.33	263.9000
590.67	264.0500
591.01	268.9000
591.34	285.0500
591.68	299.0000
592.02	314.4000
592.36	318.1000
592.69	315.0000
593.03	309.6000
593.37	309.2500
593.71	310.9000
594.04	315.6500
594.38	319.3000
594.72	318.5000
595.06	313.6500
595.39	312.1500
595.73	311.0500
596.07	319.4500
596.41	323.4000
596.74	338.9500
597.08	329.4500
597.42	337.6000
597.76	351.8000
598.09	360.3500
598.43	360.1000
598.77	363.9000
599.10	371.7500
599.44	372.8500
599.78	378.6500
600.11	375.4000
600.45	378.6500
600.79	372.8500
601.12	376.2500
601.46	378.7000
601.80	385.1500
602.13	394.9000
602.47	403.0000
602.81	404.5500
603.14	399.7500
603.48	398.2000
603.82	398.6000
604.15	397.9500
604.49	410.9000
604.82	413.6500
605.16	411.8000
605.50	412.4000
605.83	418.5000
606.17	425.9500
606.50	429.8000
606.84	432.4500
607.18	434.0000
607.51	429.8000
607.85	432.1000
608.18	427.8000
608.52	436.1000
608.86	444.0000
609.19	453.4000
609.53	450.7000
609.86	452.2000
610.20	455.5500
610.53	456.3500
610.87	451.7500
611.20	458.8500
611.54	452.0500
611.87	461.1500
612.21	464.4000
612.54	460.6000
