OOIBase32 Version 1.0.0.8 Data File
++++++++++++++++++++++++++++++++++++
Date: Monday, January 21, 1980, 09:26:39
User: Valued Ocean Optics Customer
Spectrometer Serial Number: Unknown
Spectrometer Channel: Master
Integration Time (msec): 20
Spectra Averaged: 20
Boxcar Smoothing: 0
Correct for Electrical Dark: Disabled
Time Normalized: Disabled
Dual-beam Reference: Disabled
Reference Channel: Master
>>>>>Begin Spectral Data<<<<<
179.00	0.0000
179.38	0.0000
179.75	55.1500
180.13	55.0000
180.51	55.3500
180.88	57.2000
181.26	57.6000
181.64	56.3500
182.02	56.2500
182.39	56.7000
182.77	56.9500
183.15	56.6000
183.52	57.1000
183.90	56.3000
184.28	55.9000
184.65	56.2500
185.03	56.5000
185.41	56.6500
185.78	56.6000
186.16	56.6000
186.53	56.0000
186.91	56.9500
187.29	56.4500
187.66	55.8500
188.04	56.9000
188.42	56.5000
188.79	56.0000
189.17	57.5000
189.55	55.6500
189.92	56.7000
190.30	56.8000
190.67	56.1000
191.05	56.2500
191.43	56.3000
191.80	56.4500
192.18	56.0500
192.56	56.7000
192.93	56.6000
193.31	56.5500
193.68	55.7000
194.06	57.3500
194.44	57.1500
194.81	56.7000
195.19	56.3500
195.56	57.2500
195.94	55.7500
196.32	55.7500
196.69	56.4500
197.07	56.1500
197.44	56.9500
197.82	56.6000
198.19	57.2000
198.57	56.4500
198.95	57.0000
199.32	55.8500
199.70	56.3000
200.07	56.0000
200.45	56.6500
200.82	58.1500
201.20	57.7500
201.57	57.6000
201.95	56.6000
202.33	57.3000
202.70	56.5500
203.08	55.9500
203.45	57.4000
203.83	57.1000
204.20	57.2000
204.58	56.3000
204.95	56.3000
205.33	57.0000
205.70	57.1500
206.08	55.9500
206.45	57.7000
206.83	56.6500
207.20	57.3000
207.58	56.9000
207.95	57.4000
208.33	56.6500
208.70	57.5000
209.08	57.3500
209.45	58.0500
209.83	55.4500
210.20	57.4000
210.58	56.8500
210.95	57.3000
211.33	57.6500
211.70	56.9000
212.08	56.6500
212.45	57.0500
212.83	56.7500
213.20	57.0000
213.58	57.6500
213.95	57.1000
214.33	56.2500
214.70	57.1500
215.07	57.6500
215.45	57.9000
215.82	57.6000
216.20	57.0500
216.57	57.2000
216.95	56.7000
217.32	59.0000
217.70	56.8000
218.07	57.8000
218.44	57.7000
218.82	56.6000
219.19	56.8500
219.57	57.0500
219.94	56.6500
220.32	57.5500
220.69	56.8000
221.06	57.4000
221.44	56.6500
221.81	57.9000
222.19	56.7000
222.56	56.8500
222.93	57.5000
223.31	57.6500
223.68	56.7000
224.06	56.8500
224.43	56.1000
224.80	56.4500
225.18	56.9500
225.55	57.1500
225.92	57.4500
226.30	58.1000
226.67	57.6500
227.05	56.2000
227.42	56.2000
227.79	57.8500
228.17	55.8500
228.54	56.6000
228.91	57.0500
229.29	56.9000
229.66	57.3000
230.03	57.5500
230.41	56.6500
230.78	57.7000
231.15	57.4000
231.53	56.9000
231.90	58.2500
232.27	57.3500
232.65	56.7500
233.02	56.1500
233.39	57.1500
233.77	57.2000
234.14	57.4000
234.51	57.1500
234.89	55.8500
235.26	56.2000
235.63	56.3500
236.01	57.3500
236.38	57.1500
236.75	57.6000
237.12	56.8500
237.50	56.6500
237.87	57.2500
238.24	57.1000
238.62	58.0500
238.99	56.3500
239.36	57.0500
239.73	57.7000
240.11	57.5000
240.48	58.0000
240.85	56.6000
241.23	56.3000
241.60	57.4500
241.97	56.8500
242.34	58.4500
242.72	58.3500
243.09	57.2500
243.46	57.3500
243.83	56.7000
244.21	56.6000
244.58	57.1500
244.95	57.0500
245.32	56.3500
245.70	57.1000
246.07	57.3500
246.44	56.7500
246.81	57.3500
247.18	57.9500
247.56	58.1500
247.93	56.8000
248.30	57.1000
248.67	56.2500
249.04	58.3000
249.42	56.6000
249.79	57.2000
250.16	57.6000
250.53	57.4500
250.90	56.7000
251.28	57.5500
251.65	56.0500
252.02	55.6000
252.39	57.0500
252.76	56.3500
253.14	56.3500
253.51	56.5000
253.88	57.2000
254.25	58.1500
254.62	56.1000
254.99	56.9500
255.37	56.5000
255.74	57.8500
256.11	56.4500
256.48	57.7000
256.85	56.8000
257.22	56.3000
257.59	57.5000
257.97	59.0500
258.34	57.9000
258.71	57.1500
259.08	56.4000
259.45	55.7000
259.82	58.1500
260.19	56.7000
260.56	56.7500
260.94	57.9000
261.31	57.8500
261.68	57.6500
262.05	57.4500
262.42	57.6000
262.79	56.1500
263.16	56.5500
263.53	56.5000
263.90	55.7500
264.28	57.0000
264.65	57.5500
265.02	57.3000
265.39	57.2500
265.76	57.3500
266.13	55.9000
266.50	56.7500
266.87	56.1500
267.24	56.4000
267.61	56.7500
267.98	55.9000
268.35	57.4000
268.72	56.9000
269.09	56.7000
269.46	56.6500
269.84	57.3500
270.21	56.8000
270.58	57.1000
270.95	57.0500
271.32	57.0000
271.69	58.0000
272.06	56.7500
272.43	56.9000
272.80	57.2000
273.17	56.3000
273.54	57.8000
273.91	56.8500
274.28	57.6500
274.65	57.8500
275.02	57.9000
275.39	57.9000
275.76	57.6500
276.13	57.0500
276.50	57.9000
276.87	56.5500
277.24	57.6500
277.61	57.4500
277.98	57.1500
278.35	56.4500
278.72	56.8500
279.09	57.2500
279.46	58.3000
279.83	56.7000
280.20	56.6500
280.57	58.1000
280.94	57.6500
281.31	57.0500
281.67	56.6000
282.04	56.1500
282.41	57.6000
282.78	57.4000
283.15	57.2000
283.52	56.8500
283.89	59.7500
284.26	57.2000
284.63	57.5500
285.00	56.3500
285.37	57.9000
285.74	57.3000
286.11	56.6000
286.48	56.7500
286.85	56.6500
287.21	56.6500
287.58	57.1000
287.95	56.3000
288.32	56.9500
288.69	56.0500
289.06	56.8000
289.43	57.6000
289.80	57.4500
290.17	57.4000
290.54	57.4000
290.90	58.4500
291.27	57.2000
291.64	56.1000
292.01	57.1000
292.38	57.7000
292.75	57.8000
293.12	56.1500
293.48	56.7000
293.85	57.1000
294.22	57.2000
294.59	57.0000
294.96	57.8500
295.33	56.6000
295.70	57.6000
296.06	57.0500
296.43	56.8500
296.80	56.0500
297.17	57.0000
297.54	57.1000
297.91	58.3500
298.27	56.1500
298.64	57.6500
299.01	56.6500
299.38	57.5500
299.75	57.5000
300.11	57.3000
300.48	57.2500
300.85	56.0500
301.22	56.6000
301.59	56.2500
301.95	57.3000
302.32	57.3500
302.69	57.5000
303.06	57.2500
303.43	57.1500
303.79	57.2500
304.16	56.0500
304.53	56.8000
304.90	59.0500
305.26	57.6500
305.63	57.0000
306.00	56.1500
306.37	56.9500
306.73	57.0500
307.10	57.4000
307.47	57.8500
307.84	57.6500
308.20	57.2500
308.57	56.8500
308.94	57.0000
309.31	56.7000
309.67	57.8500
310.04	57.6500
310.41	56.2000
310.77	57.3500
311.14	57.6500
311.51	57.5500
311.88	56.8500
312.24	56.2000
312.61	56.9500
312.98	56.8000
313.34	56.1000
313.71	55.6500
314.08	55.8500
314.44	57.3000
314.81	57.2000
315.18	56.4000
315.55	57.1000
315.91	57.7500
316.28	57.0500
316.65	57.1500
317.01	56.9500
317.38	57.5500
317.75	57.4000
318.11	58.4500
318.48	57.0500
318.84	57.2500
319.21	57.0000
319.58	57.8000
319.94	57.3000
320.31	57.2500
320.68	56.8500
321.04	56.7000
321.41	56.9000
321.78	57.8500
322.14	56.4000
322.51	56.4500
322.87	58.0000
323.24	57.2500
323.61	57.2500
323.97	58.0500
324.34	57.0500
324.70	56.6000
325.07	56.9000
325.44	56.4500
325.80	56.8500
326.17	57.3500
326.53	57.3000
326.90	56.7000
327.27	56.1500
327.63	55.6500
328.00	57.4500
328.36	57.3000
328.73	57.4000
329.09	57.1500
329.46	58.1500
329.83	56.4000
330.19	56.1500
330.56	57.2500
330.92	57.2500
331.29	57.5500
331.65	57.5000
332.02	56.8500
332.38	57.7500
332.75	56.2000
333.11	57.6000
333.48	56.7500
333.84	57.0000
334.21	57.5000
334.58	56.5000
334.94	56.7000
335.31	56.5500
335.67	56.7500
336.04	57.0000
336.40	57.2000
336.77	57.7500
337.13	57.6000
337.50	57.9000
337.86	57.4000
338.22	56.7500
338.59	57.5500
338.95	57.6000
339.32	56.9500
339.68	57.7000
340.05	57.2500
340.41	57.0500
340.78	56.4000
341.14	56.2000
341.51	57.1500
341.87	57.7500
342.24	57.5500
342.60	56.4500
342.96	56.3000
343.33	57.7000
343.69	56.4000
344.06	57.0000
344.42	56.4500
344.79	56.5000
345.15	55.8500
345.51	56.3000
345.88	56.0500
346.24	56.7000
346.61	57.3500
346.97	57.0500
347.34	57.0500
347.70	56.6500
348.06	56.7500
348.43	56.4500
348.79	56.9500
349.16	58.6500
349.52	57.2000
349.88	56.8500
350.25	56.9000
350.61	56.2500
350.97	56.8500
351.34	57.1000
351.70	57.7000
352.07	56.5000
352.43	56.3000
352.79	57.3000
353.16	56.2500
353.52	57.1500
353.88	57.6000
354.25	56.8500
354.61	57.4500
354.97	57.3000
355.34	57.4500
355.70	57.3500
356.06	57.5500
356.43	57.7500
356.79	55.8500
357.15	56.3000
357.52	55.6500
357.88	56.6000
358.24	55.6500
358.60	57.2500
358.97	58.4500
359.33	56.5000
359.69	57.5000
360.06	57.6500
360.42	56.7000
360.78	56.1500
361.14	56.8000
361.51	56.4500
361.87	56.2500
362.23	56.6500
362.60	57.0000
362.96	57.1000
363.32	57.2000
363.68	56.6000
364.05	57.3000
364.41	56.2000
364.77	56.4000
365.13	56.7000
365.50	57.8000
365.86	57.6500
366.22	56.9500
366.58	56.6000
366.95	56.7000
367.31	56.9500
367.67	56.5000
368.03	57.0000
368.39	57.9000
368.76	57.0000
369.12	57.6500
369.48	56.3500
369.84	57.0500
370.20	57.4500
370.57	55.5500
370.93	56.7000
371.29	56.3500
371.65	56.5500
372.01	55.2000
372.38	56.3500
372.74	56.8500
373.10	58.2000
373.46	56.0500
373.82	56.2500
374.18	56.8000
374.55	56.6000
374.91	57.4500
375.27	57.1500
375.63	57.6500
375.99	57.4000
376.35	58.4000
376.71	56.8000
377.08	57.1000
377.44	57.4000
377.80	56.8500
378.16	56.5000
378.52	56.6500
378.88	57.1500
379.24	56.8500
379.60	57.1000
379.97	57.3500
380.33	55.9500
380.69	56.7000
381.05	57.4000
381.41	56.8000
381.77	55.8000
382.13	56.3000
382.49	57.5000
382.85	57.2000
383.21	57.1500
383.57	57.6000
383.94	57.0500
384.30	56.6500
384.66	57.6500
385.02	56.4500
385.38	56.6500
385.74	56.4500
386.10	56.8500
386.46	56.5500
386.82	56.5000
387.18	57.0500
387.54	55.3500
387.90	57.0000
388.26	56.6500
388.62	56.4000
388.98	56.2500
389.34	56.6500
389.70	56.4000
390.06	57.5000
390.42	56.4500
390.78	56.5500
391.14	57.7000
391.50	56.9000
391.86	56.7000
392.22	56.6500
392.58	56.5500
392.94	56.6000
393.30	56.2500
393.66	56.2000
394.02	55.7000
394.38	56.6500
394.74	57.2500
395.10	56.8500
395.46	57.7000
395.82	57.1500
396.18	56.6000
396.54	56.9000
396.90	57.2000
397.26	57.2500
397.62	56.8000
397.98	57.0500
398.34	57.6500
398.70	57.2000
399.05	57.8500
399.41	56.5000
399.77	56.4000
400.13	57.3500
400.49	57.1500
400.85	57.1500
401.21	56.6500
401.57	57.3000
401.93	57.7500
402.29	56.2000
402.65	56.4000
403.00	56.7000
403.36	57.5500
403.72	56.8000
404.08	56.7000
404.44	56.5500
404.80	56.4500
405.16	57.9500
405.52	56.3000
405.87	57.3000
406.23	58.6000
406.59	57.5500
406.95	56.8500
407.31	55.8000
407.67	56.5500
408.03	55.9500
408.38	56.8000
408.74	56.1000
409.10	57.9500
409.46	56.9000
409.82	56.9500
410.17	56.8500
410.53	56.9500
410.89	57.4500
411.25	56.4000
411.61	55.5500
411.97	56.8000
412.32	56.3000
412.68	58.7500
413.04	56.4500
413.40	56.7500
413.75	56.5000
414.11	57.2000
414.47	57.2000
414.83	57.7500
415.19	57.3000
415.54	56.5000
415.90	56.1500
416.26	56.0500
416.62	56.7500
416.97	56.3000
417.33	56.5000
417.69	58.0500
418.05	57.7500
418.40	56.7000
418.76	56.5000
419.12	57.2500
419.48	57.7000
419.83	56.9500
420.19	57.0500
420.55	57.5500
420.90	57.9000
421.26	57.3000
421.62	56.2000
421.98	55.5500
422.33	57.1500
422.69	57.4500
423.05	56.7500
423.40	57.4500
423.76	57.5000
424.12	57.5000
424.47	57.2500
424.83	56.6000
425.19	56.9000
425.54	56.6500
425.90	57.9500
426.26	56.6500
426.61	57.1500
426.97	57.2500
427.33	56.6000
427.68	57.8000
428.04	57.3000
428.40	57.0500
428.75	58.1000
429.11	57.1000
429.47	57.0000
429.82	57.5500
430.18	56.4500
430.53	56.8000
430.89	57.4500
431.25	57.4500
431.60	57.8500
431.96	57.6000
432.31	57.5500
432.67	57.3000
433.03	55.8500
433.38	56.9500
433.74	57.0500
434.09	57.3500
434.45	58.6500
434.81	57.2500
435.16	57.5500
435.52	57.1000
435.87	57.4000
436.23	57.7000
436.58	56.4000
436.94	57.9000
437.30	56.1000
437.65	56.8500
438.01	57.9500
438.36	56.7500
438.72	58.2000
439.07	57.3500
439.43	57.2000
439.78	57.3000
440.14	56.9000
440.49	57.6500
440.85	56.7500
441.20	57.3000
441.56	57.3500
441.91	58.2000
442.27	56.9500
442.62	57.9000
442.98	57.2500
443.33	58.4500
443.69	57.6500
444.04	69.8500
444.40	59.4500
444.75	58.7000
445.11	58.3000
445.46	57.6000
445.82	58.7000
446.17	58.6000
446.53	57.8000
446.88	58.3000
447.23	56.7000
447.59	57.6000
447.94	58.1500
448.30	58.2500
448.65	57.3500
449.01	57.3000
449.36	57.3000
449.72	57.1500
450.07	59.1500
450.42	58.0000
450.78	57.7000
451.13	58.4500
451.49	56.6500
451.84	58.9000
452.19	57.7000
452.55	57.8500
452.90	58.6500
453.26	58.1000
453.61	57.1500
453.96	57.9500
454.32	57.5500
454.67	58.1500
455.02	58.5500
455.38	57.9000
455.73	56.7500
456.09	58.9500
456.44	57.3000
456.79	57.7000
457.15	58.3000
457.50	57.7000
457.85	58.3500
458.21	58.6500
458.56	58.3000
458.91	57.4500
459.27	56.8000
459.62	57.9000
459.97	58.1000
460.32	58.3000
460.68	59.3500
461.03	57.5500
461.38	57.2000
461.74	58.1500
462.09	57.3500
462.44	57.2500
462.80	57.6000
463.15	58.1500
463.50	57.4000
463.85	57.2000
464.21	56.2500
464.56	57.7000
464.91	58.2000
465.26	56.5000
465.62	56.8000
465.97	58.2500
466.32	58.5500
466.67	57.0000
467.03	57.6500
467.38	57.1000
467.73	56.5500
468.08	57.1500
468.44	58.3000
468.79	57.9000
469.14	57.5000
469.49	57.2500
469.85	57.0500
470.20	57.7500
470.55	58.1000
470.90	58.3000
471.25	58.3000
471.61	58.1500
471.96	57.8000
472.31	57.1000
472.66	57.0500
473.01	57.1500
473.36	57.8500
473.72	57.7500
474.07	58.3500
474.42	56.9000
474.77	56.9000
475.12	57.2500
475.47	56.9500
475.83	57.3000
476.18	57.5000
476.53	57.6000
476.88	57.0000
477.23	57.2500
477.58	56.9500
477.93	57.0000
478.28	57.0000
478.64	57.3000
478.99	56.7000
479.34	57.0000
479.69	57.7000
480.04	58.1500
480.39	58.2000
480.74	57.6500
481.09	57.5500
481.44	57.7000
481.79	57.5500
482.15	57.4500
482.50	57.5000
482.85	58.3500
483.20	56.8500
483.55	56.9000
483.90	57.2000
484.25	57.8000
484.60	57.6000
484.95	58.2500
485.30	57.6500
485.65	57.6500
486.00	57.4000
486.35	57.3000
486.70	58.5500
487.05	58.8500
487.40	57.2000
487.75	57.9500
488.10	57.0500
488.45	56.9500
488.80	58.3500
489.15	56.7500
489.50	57.6500
489.85	58.4000
490.20	56.6500
490.55	56.6000
490.90	57.4500
491.25	57.1500
491.60	57.6000
491.95	57.8000
492.30	56.3000
492.65	57.2000
493.00	56.9000
493.35	57.7500
493.70	57.9000
494.05	57.7000
494.40	56.7000
494.75	56.5000
495.10	57.7500
495.45	57.7000
495.80	58.0500
496.15	56.8000
496.50	57.0000
496.84	57.3500
497.19	57.5000
497.54	58.0500
497.89	57.0000
498.24	58.1000
498.59	58.5500
498.94	56.8000
499.29	57.5500
499.64	56.8000
499.99	57.3000
500.33	58.4000
500.68	58.6500
501.03	58.8000
501.38	58.4500
501.73	57.1500
502.08	56.9000
502.43	57.7500
502.77	57.3500
503.12	57.1500
503.47	57.2500
503.82	57.5000
504.17	57.5000
504.52	58.7000
504.86	57.6500
505.21	57.9500
505.56	59.7500
505.91	58.2500
506.26	57.6500
506.61	57.6000
506.95	56.9000
507.30	58.2500
507.65	57.2500
508.00	57.4000
508.35	57.5000
508.69	58.2500
509.04	57.2500
509.39	57.9000
509.74	57.7500
510.08	57.2000
510.43	57.6500
510.78	57.6500
511.13	57.8000
511.47	58.5000
511.82	58.3000
512.17	57.9000
512.52	57.5000
512.86	59.3000
513.21	56.7500
513.56	57.5500
513.91	57.3500
514.25	57.9500
514.60	58.4500
514.95	58.1500
515.30	57.7000
515.64	57.4000
515.99	57.8000
516.34	58.6000
516.68	57.6000
517.03	57.2500
517.38	57.2000
517.72	57.7000
518.07	56.9500
518.42	58.1500
518.76	58.3000
519.11	57.6000
519.46	57.8500
519.80	58.2000
520.15	57.5500
520.50	58.6500
520.84	59.7000
521.19	59.1000
521.54	59.1000
521.88	57.1500
522.23	58.5000
522.58	58.4500
522.92	57.9500
523.27	58.1000
523.61	57.7000
523.96	57.4000
524.31	58.5000
524.65	58.0000
525.00	57.5000
525.34	58.4500
525.69	57.7500
526.04	58.4500
526.38	58.3500
526.73	57.8000
527.07	57.1000
527.42	57.7500
527.76	58.6500
528.11	57.8000
528.46	58.8000
528.80	57.6000
529.15	57.5000
529.49	58.6000
529.84	57.2000
530.18	58.5000
530.53	57.6000
530.87	57.1500
531.22	57.6500
531.56	56.9000
531.91	58.5000
532.25	58.1500
532.60	57.3500
532.94	58.2500
533.29	59.3500
533.63	58.3500
533.98	57.9500
534.32	59.0000
534.67	58.0000
535.01	57.9500
535.36	57.9500
535.70	58.2500
536.05	58.1000
536.39	57.8000
536.74	57.6500
537.08	57.9500
537.43	57.6500
537.77	58.8000
538.12	58.0000
538.46	58.5500
538.80	59.2500
539.15	58.2500
539.49	56.5500
539.84	57.0000
540.18	58.5000
540.53	57.6500
540.87	59.0000
541.21	57.0000
541.56	57.4000
541.90	57.5000
542.25	58.0000
542.59	57.6500
542.93	58.6000
543.28	57.4000
543.62	56.8000
543.97	59.0000
544.31	58.4500
544.65	58.1000
545.00	58.6500
545.34	56.9000
545.68	57.1500
546.03	57.3500
546.37	57.2500
546.71	57.9500
547.06	58.0500
547.40	57.4500
547.74	57.5000
548.09	58.1000
548.43	57.0000
548.77	57.4000
549.12	58.6500
549.46	58.1500
549.80	57.8000
550.15	57.8500
550.49	58.0000
550.83	57.1500
551.17	57.3500
551.52	57.7000
551.86	57.7500
552.20	57.2500
552.55	57.0000
552.89	57.0000
553.23	58.2000
553.57	57.7000
553.92	58.5000
554.26	58.6500
554.60	58.1500
554.94	58.4500
555.29	57.7500
555.63	58.5000
555.97	58.0500
556.31	58.4000
556.66	58.1000
557.00	58.1500
557.34	57.6500
557.68	58.9500
558.02	57.6000
558.37	58.4000
558.71	58.1500
559.05	58.8000
559.39	57.0500
559.73	57.3000
560.08	57.1500
560.42	58.9000
560.76	57.6000
561.10	58.2500
561.44	57.1500
561.78	58.3000
562.13	57.1500
562.47	58.8500
562.81	58.2000
563.15	58.8000
563.49	58.0500
563.83	57.3000
564.17	57.2000
564.52	56.6000
564.86	57.1000
565.20	57.7500
565.54	58.2000
565.88	58.3500
566.22	57.9000
566.56	57.7500
566.90	57.5500
567.24	58.1500
567.59	57.5500
567.93	58.1000
568.27	58.3500
568.61	58.3500
568.95	58.2500
569.29	57.5500
569.63	57.6000
569.97	57.4500
570.31	57.9500
570.65	57.8500
570.99	57.4500
571.33	57.9500
571.67	58.0000
572.01	58.1500
572.35	58.0500
572.69	57.9500
573.03	57.6500
573.37	58.0000
573.71	58.1000
574.05	58.7000
574.39	58.6500
574.73	57.1000
575.07	57.6000
575.41	58.5000
575.75	57.9000
576.09	57.1500
576.43	58.5500
576.77	58.6000
577.11	57.9000
577.45	56.9000
577.79	58.3500
578.13	59.0000
578.47	58.1500
578.81	58.3000
579.15	57.0000
579.49	57.2500
579.83	57.7500
580.17	58.5500
580.51	57.8500
580.85	57.9500
581.19	57.9500
581.53	58.3500
581.87	58.1500
582.20	58.2500
582.54	57.3500
582.88	57.5500
583.22	58.3000
583.56	58.3500
583.90	59.2500
584.24	59.0500
584.58	58.2500
584.92	58.0500
585.25	58.7500
585.59	57.9000
585.93	57.5000
586.27	59.0500
586.61	57.2500
586.95	58.4500
587.29	57.4500
587.62	58.5500
587.96	58.0500
588.30	58.1500
588.64	57.5000
588.98	58.8000
589.31	57.0000
589.65	57.5000
589.99	58.1000
590.33	57.1500
590.67	57.1500
591.01	57.4000
591.34	56.9000
591.68	58.3500
592.02	57.3500
592.36	58.2000
592.69	57.4500
593.03	56.8000
593.37	58.0000
593.71	57.9500
594.04	57.7000
594.38	58.0000
594.72	58.6500
595.06	55.7500
595.39	57.3000
595.73	57.7000
596.07	57.7000
596.41	58.4500
596.74	73.5500
597.08	58.7000
597.42	56.4500
597.76	57.6000
598.09	57.2500
598.43	56.9000
598.77	56.4000
599.10	57.1500
599.44	57.5000
599.78	57.7000
600.11	57.5500
600.45	57.1500
600.79	57.2500
601.12	57.8000
601.46	58.3500
601.80	57.7000
602.13	57.2000
602.47	58.0500
602.81	57.2000
603.14	57.9500
603.48	57.5000
603.82	58.5500
604.15	57.0000
604.49	58.8500
604.82	57.2000
605.16	57.9000
605.50	58.8500
605.83	58.0000
606.17	57.7500
606.50	58.0000
606.84	56.4500
607.18	57.4500
607.51	58.2500
607.85	57.4500
608.18	57.7500
608.52	57.4500
608.86	58.2500
609.19	56.9000
609.53	57.4500
609.86	57.5500
610.20	57.1500
610.53	57.1000
610.87	58.1500
611.20	56.6500
611.54	57.7000
611.87	57.5000
612.21	56.7000
612.54	57.2000
612.88	58.3500
613.21	59.1500
613.55	58.4000
613.88	58.8000
614.22	58.2000
614.55	56.9500
614.89	56.8500
615.22	57.8000
615.56	57.8500
615.89	58.5500
