>>>>>Begin Spectral Data<<<<<
179.00	0.0000
179.38	0.0000
179.75	54.9000
180.13	56.1500
180.51	56.0500
180.88	58.1500
181.26	55.8000
181.64	57.0500
182.02	55.4000
182.39	56.8500
182.77	55.4000
183.15	55.5000
183.52	56.9500
183.90	55.9000
184.28	55.4000
184.65	56.4000
185.03	55.9500
185.41	56.6000
185.78	56.0500
186.16	56.0000
186.53	56.0000
186.91	56.2000
187.29	55.9500
187.66	55.2500
188.04	56.5000
188.42	57.6000
188.79	56.6500
189.17	58.1500
189.55	56.6000
189.92	56.5000
190.30	57.5000
190.67	56.3000
191.05	56.1000
191.43	57.3000
191.80	57.2500
192.18	56.1000
192.56	56.5500
192.93	57.1500
193.31	55.9500
193.68	57.4000
194.06	57.1000
194.44	57.1000
194.81	57.8500
195.19	57.7500
195.56	56.7500
195.94	57.8000
196.32	55.9000
196.69	56.1500
197.07	56.6000
197.44	56.7000
197.82	57.9500
198.19	58.1500
198.57	57.1000
198.95	57.7000
199.32	56.9000
199.70	56.7000
200.07	56.7000
200.45	57.0000
200.82	56.8500
201.20	57.1500
201.57	57.2500
201.95	56.8000
202.33	56.7000
202.70	57.1000
203.08	57.4500
203.45	56.3500
203.83	57.3000
204.20	56.7500
204.58	56.3500
204.95	57.8000
205.33	57.3000
205.70	57.7500
206.08	56.6000
206.45	57.5500
206.83	56.0500
207.20	57.1500
207.58	56.1000
207.95	56.9500
208.33	56.5500
208.70	58.2000
209.08	55.9500
209.45	57.0500
209.83	57.0000
210.20	56.5000
210.58	56.9000
210.95	57.9000
211.33	57.6500
211.70	57.0500
212.08	57.4000
212.45	57.4000
212.83	57.7500
213.20	57.3000
213.58	56.3000
213.95	57.6500
214.33	57.0000
214.70	56.6500
215.07	56.8000
215.45	57.4500
215.82	57.8000
216.20	56.5500
216.57	57.3000
216.95	57.0000
217.32	57.9000
217.70	57.3000
218.07	57.1500
218.44	56.5500
218.82	58.4000
219.19	57.2500
219.57	57.0000
219.94	57.4500
220.32	57.0500
220.69	57.6000
221.06	57.3500
221.44	58.3000
221.81	58.5500
222.19	57.6000
222.56	57.5000
222.93	58.1000
223.31	57.5500
223.68	56.2000
224.06	56.3500
224.43	58.3500
224.80	56.4000
225.18	56.8000
225.55	56.4500
225.92	59.0500
226.30	56.8000
226.67	56.9500
227.05	57.1000
227.42	58.2500
227.79	58.1500
228.17	57.3500
228.54	56.8000
228.91	57.6500
229.29	58.3500
229.66	57.9500
230.03	57.0500
230.41	57.8000
230.78	57.8500
231.15	57.5500
231.53	57.3000
231.90	57.8500
232.27	58.6500
232.65	56.8000
233.02	56.7000
233.39	58.0500
233.77	56.9000
234.14	58.7000
234.51	57.3000
234.89	57.9000
235.26	56.9000
235.63	56.3500
236.01	56.0500
236.38	57.2500
236.75	57.0000
237.12	57.1000
237.50	56.8500
237.87	57.2000
238.24	56.8500
238.62	57.6000
238.99	57.5500
239.36	57.2000
239.73	58.0000
240.11	58.0500
240.48	57.5500
240.85	57.9500
241.23	56.8500
241.60	57.3000
241.97	57.1500
242.34	57.3000
242.72	57.7000
243.09	56.7500
243.46	57.9000
243.83	57.6500
244.21	57.5500
244.58	57.6000
244.95	58.1000
245.32	57.3500
245.70	55.8500
246.07	57.9000
246.44	58.0000
246.81	57.7500
247.18	58.5000
247.56	57.7500
247.93	56.8000
248.30	56.6500
248.67	57.4000
249.04	56.6500
249.42	57.4500
249.79	56.9000
250.16	57.4500
250.53	57.6000
250.90	57.2000
251.28	56.7000
251.65	57.5500
252.02	57.6500
252.39	56.9000
252.76	56.5000
253.14	57.8000
253.51	57.1000
253.88	57.6500
254.25	57.5500
254.62	57.4000
254.99	56.3500
255.37	56.9500
255.74	57.9500
256.11	57.6000
256.48	57.8500
256.85	57.8000
257.22	57.6500
257.59	57.3000
257.97	57.1000
258.34	57.7000
258.71	57.7000
259.08	57.4000
259.45	56.5000
259.82	56.2500
260.19	56.4000
260.56	57.0000
260.94	57.1000
261.31	57.7000
261.68	56.9500
262.05	57.7500
262.42	56.4500
262.79	58.0500
263.16	57.8500
263.53	56.7500
263.90	59.0000
264.28	57.7500
264.65	57.1500
265.02	57.7000
265.39	57.9000
265.76	57.4500
266.13	58.0500
266.50	57.3500
266.87	56.6500
267.24	57.1000
267.61	57.8000
267.98	56.3500
268.35	58.2000
268.72	57.6000
269.09	57.3000
269.46	56.4500
269.84	58.0500
270.21	57.1000
270.58	58.0000
270.95	58.2000
271.32	57.9500
271.69	57.4500
272.06	57.3500
272.43	57.1500
272.80	56.6500
273.17	57.8000
273.54	57.9000
273.91	57.4500
274.28	56.9000
274.65	57.3500
275.02	56.9500
275.39	56.9000
275.76	57.9000
276.13	57.4000
276.50	57.4500
276.87	56.5000
277.24	57.1000
277.61	56.8500
277.98	58.0000
278.35	57.8000
278.72	55.4000
279.09	57.4000
279.46	59.3500
279.83	57.9000
280.20	57.6500
280.57	58.5500
280.94	57.7500
281.31	56.5500
281.67	57.9500
282.04	57.2000
282.41	57.3000
282.78	57.6500
283.15	57.4500
283.52	56.5500
283.89	60.2500
284.26	57.5000
284.63	57.6000
285.00	57.9500
285.37	57.5000
285.74	56.9500
286.11	57.0500
286.48	57.4500
286.85	57.3000
287.21	56.0000
287.58	57.4500
287.95	57.2000
288.32	56.8500
288.69	58.6500
289.06	57.6500
289.43	57.2000
289.80	56.8500
290.17	56.6500
290.54	57.7000
290.90	57.0000
291.27	59.6000
291.64	58.4500
292.01	57.5000
292.38	56.7500
292.75	57.4000
293.12	57.0000
293.48	57.0000
293.85	57.2000
294.22	56.4000
294.59	57.5000
294.96	58.3000
295.33	57.3000
295.70	57.9000
296.06	57.8000
296.43	58.0000
296.80	58.3500
297.17	57.4000
297.54	57.0000
297.91	58.2000
298.27	57.4500
298.64	57.6500
299.01	56.9500
299.38	58.7500
299.75	57.6000
300.11	56.7000
300.48	57.4000
300.85	57.2500
301.22	56.5500
301.59	57.7000
301.95	57.6000
302.32	57.9500
302.69	56.3500
303.06	57.1000
303.43	56.9500
303.79	56.8500
304.16	58.6000
304.53	58.1000
304.90	58.1500
305.26	57.5500
305.63	56.9500
306.00	56.6000
306.37	57.7500
306.73	58.0500
307.10	56.9500
307.47	57.0000
307.84	57.0000
308.20	58.5000
308.57	57.1000
308.94	57.2500
309.31	57.8000
309.67	57.2500
310.04	57.5000
310.41	58.8000
310.77	58.2500
311.14	57.5500
311.51	57.7000
311.88	57.7500
312.24	58.1000
312.61	58.5000
312.98	57.6500
313.34	56.7000
313.71	58.6500
314.08	56.7500
314.44	57.1500
314.81	58.4000
315.18	57.9000
315.55	57.5000
315.91	57.6000
316.28	58.4000
316.65	57.2500
317.01	57.2000
317.38	58.3000
317.75	58.5500
318.11	57.9500
318.48	57.2000
318.84	58.0500
319.21	57.1500
319.58	56.2500
319.94	57.5000
320.31	58.0500
320.68	58.1000
321.04	56.4000
321.41	56.9000
321.78	57.4000
322.14	58.7000
322.51	58.1500
322.87	57.0500
323.24	56.5500
323.61	57.1500
323.97	57.4500
324.34	57.5500
324.70	57.4000
325.07	58.0500
325.44	57.6000
325.80	56.9000
326.17	57.6000
326.53	57.6500
326.90	57.0000
327.27	57.1000
327.63	57.5000
328.00	58.0000
328.36	57.2500
328.73	57.7000
329.09	57.7500
329.46	57.3000
329.83	57.1500
330.19	57.9500
330.56	57.3000
330.92	57.4500
331.29	56.5500
331.65	57.9000
332.02	57.9000
332.38	57.9000
332.75	57.7000
333.11	57.1000
333.48	56.9000
333.84	57.4000
334.21	56.7000
334.58	56.7000
334.94	57.2500
335.31	57.3500
335.67	56.0500
336.04	57.6000
336.40	58.4000
336.77	57.3000
337.13	58.3000
337.50	57.7500
337.86	57.4000
338.22	56.4500
338.59	58.3000
338.95	58.3500
339.32	58.1000
339.68	57.5500
340.05	57.3500
340.41	56.6000
340.78	56.9000
341.14	57.5000
341.51	56.5500
341.87	56.7500
342.24	58.1500
342.60	58.3500
342.96	57.2000
343.33	57.4000
343.69	57.0000
344.06	57.4000
344.42	57.7000
344.79	57.4000
345.15	57.4000
345.51	57.8000
345.88	57.2000
346.24	58.1000
346.61	56.8000
346.97	58.3000
347.34	58.4000
347.70	56.9000
348.06	57.9000
348.43	58.1500
348.79	57.3000
349.16	58.5000
349.52	58.1000
349.88	58.6500
350.25	57.1500
350.61	57.2500
350.97	57.0000
351.34	57.6500
351.70	57.5000
352.07	56.8000
352.43	57.8500
352.79	58.0000
353.16	57.8500
353.52	57.2000
353.88	57.4000
354.25	57.6500
354.61	56.8500
354.97	58.5000
355.34	56.9500
355.70	57.5500
356.06	56.1000
356.43	56.2000
356.79	57.4000
357.15	57.1500
357.52	58.0500
357.88	58.1500
358.24	57.4500
358.60	57.5000
358.97	59.5000
359.33	57.9500
359.69	56.2000
360.06	56.3000
360.42	56.9000
360.78	57.1000
361.14	57.6000
361.51	57.5500
361.87	56.7500
362.23	58.3500
362.60	57.5500
362.96	57.6500
363.32	57.6000
363.68	57.5500
364.05	57.6500
364.41	57.5000
364.77	57.8000
365.13	57.6500
365.50	57.3500
365.86	57.8000
366.22	56.3500
366.58	57.1000
366.95	57.6000
367.31	58.8500
367.67	58.5500
368.03	56.9000
368.39	57.0000
368.76	55.7500
369.12	57.0000
369.48	56.6000
369.84	57.4500
370.20	57.7000
370.57	57.1500
370.93	57.2500
371.29	57.2000
371.65	55.9000
372.01	56.2500
372.38	57.8500
372.74	57.6000
373.10	57.5000
373.46	57.7000
373.82	57.4500
374.18	57.2000
374.55	57.7500
374.91	57.4000
375.27	57.9000
375.63	58.6000
375.99	58.5000
376.35	58.0000
376.71	58.2500
377.08	58.4000
377.44	57.0000
377.80	57.5500
378.16	56.9000
378.52	57.7500
378.88	58.3000
379.24	57.5500
379.60	57.4000
379.97	58.7000
380.33	58.0000
380.69	57.6500
381.05	57.0500
381.41	56.8500
381.77	57.7000
382.13	58.5000
382.49	57.5500
382.85	58.3000
383.21	58.6000
383.57	57.5500
383.94	57.4500
384.30	57.0500
384.66	58.4500
385.02	59.2000
385.38	58.6500
385.74	57.8000
386.10	58.7000
386.46	58.1500
386.82	57.3500
387.18	57.9000
387.54	58.3000
387.90	57.4500
388.26	57.9500
388.62	56.5000
388.98	57.0500
389.34	57.8500
389.70	57.3000
390.06	57.3500
390.42	57.4000
390.78	57.9000
391.14	57.0000
391.50	57.1500
391.86	57.3000
392.22	56.6500
392.58	56.9500
392.94	57.0000
393.30	56.9500
393.66	57.8000
394.02	56.9000
394.38	57.3500
394.74	56.7000
395.10	56.5500
395.46	57.8000
395.82	57.5000
396.18	58.2500
396.54	58.5500
396.90	57.3000
397.26	57.0500
397.62	58.2500
397.98	57.0000
398.34	57.7500
398.70	56.4500
399.05	57.5000
399.41	56.2500
399.77	57.2500
400.13	57.6500
400.49	57.8000
400.85	57.0500
401.21	58.0500
401.57	56.8000
401.93	56.8000
402.29	57.4500
402.65	56.9000
403.00	58.1000
403.36	57.8000
403.72	57.5000
404.08	57.5500
404.44	56.2000
404.80	57.2500
405.16	58.8000
405.52	57.3500
405.87	56.9000
406.23	58.8500
406.59	58.4000
406.95	57.3000
407.31	57.3000
407.67	57.7500
408.03	56.8500
408.38	57.5000
408.74	57.8500
409.10	58.0000
409.46	58.3500
409.82	58.2000
410.17	57.4500
410.53	57.2500
410.89	57.3000
411.25	58.6500
411.61	57.0500
411.97	57.1500
412.32	57.2500
412.68	58.1500
413.04	57.7000
413.40	58.5000
413.75	58.0000
414.11	56.9000
414.47	57.1000
414.83	57.4000
415.19	58.7500
415.54	57.7000
415.90	57.8500
416.26	58.3500
416.62	57.3500
416.97	57.2000
417.33	57.4000
417.69	57.6500
418.05	58.9000
418.40	58.5500
418.76	57.9000
419.12	57.3500
419.48	58.4000
419.83	57.0500
420.19	57.5000
420.55	56.4000
420.90	57.0500
421.26	56.8000
421.62	57.8500
421.98	57.7000
422.33	58.2500
422.69	57.4000
423.05	57.1000
423.40	58.0500
423.76	58.0000
424.12	57.1000
424.47	57.5000
424.83	58.7500
425.19	57.3000
425.54	58.4500
425.90	57.4500
426.26	57.6500
426.61	57.7500
426.97	57.7500
427.33	57.8500
427.68	58.1000
428.04	57.0000
428.40	57.0500
428.75	57.6000
429.11	58.2500
429.47	58.4000
429.82	57.7500
430.18	58.2500
430.53	57.2000
430.89	57.3500
431.25	58.3500
431.60	57.0500
431.96	57.7500
432.31	57.6500
432.67	57.9000
433.03	58.4000
433.38	56.3000
433.74	57.1000
434.09	57.3000
434.45	58.3500
434.81	57.4500
435.16	57.3500
435.52	57.5000
435.87	58.4500
436.23	57.9000
436.58	58.1000
436.94	57.6500
437.30	57.1000
437.65	57.0500
438.01	57.9500
438.36	56.7000
438.72	56.7000
439.07	56.4000
439.43	57.5000
439.78	57.5000
440.14	56.9000
440.49	57.1500
440.85	56.6000
441.20	58.2500
441.56	57.2000
441.91	57.4000
442.27	57.7500
442.62	57.9500
442.98	58.3500
443.33	57.6500
443.69	58.1000
444.04	70.3000
444.40	58.9500
444.75	58.5500
445.11	58.3500
445.46	57.9500
445.82	56.6500
446.17	58.2500
446.53	58.0500
446.88	57.7500
447.23	57.6500
447.59	57.5500
447.94	57.9500
448.30	58.0500
448.65	58.2500
449.01	57.6000
449.36	58.4000
449.72	58.0000
450.07	57.8500
450.42	57.9000
450.78	57.4000
451.13	57.0000
451.49	57.8500
451.84	57.5500
452.19	58.1000
452.55	57.2000
452.90	57.4500
453.26	58.4000
453.61	56.8500
453.96	56.8500
454.32	57.7500
454.67	57.2000
455.02	57.4000
455.38	58.0000
455.73	57.9500
456.09	57.3500
456.44	57.1500
456.79	58.1500
457.15	57.4000
457.50	56.4500
457.85	57.3000
458.21	58.0500
458.56	58.2500
458.91	59.2000
459.27	57.6500
459.62	58.3000
459.97	58.2000
460.32	57.9500
460.68	58.5000
461.03	58.2000
461.38	57.1500
461.74	57.7500
462.09	57.5500
462.44	57.3500
462.80	57.9500
463.15	59.0000
463.50	57.7000
463.85	57.7500
464.21	57.2500
464.56	57.2000
464.91	58.0500
465.26	57.0500
465.62	57.5000
465.97	58.7500
466.32	59.3000
466.67	58.3000
467.03	58.4000
467.38	58.5500
467.73	57.4500
468.08	56.4000
468.44	58.5500
468.79	57.7000
469.14	57.7500
469.49	56.7000
469.85	56.5500
470.20	58.2500
470.55	56.8000
470.90	56.8000
471.25	57.7000
471.61	58.2500
471.96	57.2500
472.31	58.3500
472.66	57.2000
473.01	57.8000
473.36	57.7500
473.72	57.3000
474.07	57.3000
474.42	58.1500
474.77	57.6000
475.12	56.9500
475.47	57.6000
475.83	56.8000
476.18	57.5000
476.53	57.6500
476.88	57.1500
477.23	57.4000
477.58	58.1500
477.93	57.3500
478.28	58.2500
478.64	58.0500
478.99	57.3500
479.34	58.5000
479.69	57.9000
480.04	57.3500
480.39	56.9500
480.74	56.5000
481.09	57.5000
481.44	58.1000
481.79	58.0000
482.15	58.2000
482.50	58.5500
482.85	58.6000
483.20	57.5000
483.55	57.4500
483.90	58.2000
484.25	58.8500
484.60	58.2500
484.95	58.4000
485.30	57.2000
485.65	56.8500
486.00	57.5500
486.35	56.9500
486.70	57.2000
487.05	57.5000
487.40	57.5500
487.75	58.3500
488.10	58.1500
488.45	57.7000
488.80	58.2000
489.15	58.0500
489.50	58.7000
489.85	57.6000
490.20	56.5000
490.55	57.5000
490.90	57.5000
491.25	56.0000
491.60	58.1000
491.95	58.7000
492.30	57.5500
492.65	57.4000
493.00	57.1500
493.35	57.2000
493.70	56.6000
494.05	57.3500
494.40	56.7500
494.75	57.8000
495.10	58.1000
495.45	58.2500
495.80	58.4500
496.15	57.7000
496.50	57.9000
496.84	57.2500
497.19	57.6500
497.54	58.1000
497.89	56.5500
498.24	58.3000
498.59	58.1000
498.94	57.8000
499.29	57.4500
499.64	57.2500
499.99	57.5000
500.33	58.1500
500.68	57.9000
501.03	57.2500
501.38	57.5000
501.73	57.3500
502.08	57.0500
502.43	57.0500
502.77	57.6000
503.12	57.7500
503.47	57.2000
503.82	57.4000
504.17	57.1000
504.52	58.0000
504.86	57.6500
505.21	57.9500
505.56	59.0000
505.91	57.0500
506.26	55.9500
506.61	57.4000
506.95	57.3500
507.30	58.2000
507.65	57.9500
508.00	57.4500
508.35	57.5000
508.69	58.1500
509.04	57.6500
509.39	58.3000
509.74	57.9500
510.08	57.7000
510.43	58.1000
510.78	57.7500
511.13	57.8500
511.47	58.5500
511.82	58.4500
512.17	57.9500
512.52	57.2500
512.86	57.7000
513.21	57.3500
513.56	58.1000
513.91	58.1500
514.25	58.1000
514.60	58.5500
514.95	59.3500
515.30	58.2000
515.64	57.7000
515.99	57.9000
516.34	58.2500
516.68	57.5000
517.03	58.8500
517.38	58.9000
517.72	59.6000
518.07	58.9500
518.42	58.0000
518.76	57.8500
519.11	59.1500
519.46	59.2000
519.80	59.5500
520.15	58.7500
520.50	59.6000
520.84	60.0500
521.19	59.9000
521.54	58.9500
521.88	59.6000
522.23	58.9500
522.58	60.3000
522.92	59.8000
523.27	58.8000
523.61	60.2500
523.96	60.1000
524.31	60.6500
524.65	59.8500
525.00	60.8500
525.34	60.4500
525.69	60.3500
526.04	61.7000
526.38	60.3000
526.73	61.5500
527.07	61.5000
527.42	61.5500
527.76	62.1500
528.11	62.3500
528.46	63.0000
528.80	62.7000
529.15	62.4500
529.49	62.1500
529.84	62.8500
530.18	62.9500
530.53	63.9000
530.87	63.8500
531.22	64.1500
531.56	64.1000
531.91	64.0500
532.25	65.5500
532.60	65.5000
532.94	65.6500
533.29	65.7500
533.63	65.6000
533.98	65.5500
534.32	66.6500
534.67	65.8000
535.01	67.1500
535.36	66.7000
535.70	67.9000
536.05	67.8000
536.39	67.9000
536.74	68.0000
537.08	70.7500
537.43	69.1000
537.77	70.4500
538.12	69.5500
538.46	69.9500
538.80	72.0500
539.15	73.3000
539.49	72.4000
539.84	73.0500
540.18	73.1500
540.53	73.0500
540.87	72.0500
541.21	74.2500
541.56	75.0000
541.90	75.7500
542.25	75.6500
542.59	75.8500
542.93	76.5500
543.28	77.7500
543.62	78.0500
543.97	79.2000
544.31	79.0500
544.65	79.3500
545.00	79.2500
545.34	80.2000
545.68	81.2500
546.03	81.4500
546.37	82.6000
546.71	83.7000
547.06	86.4500
547.40	86.0500
547.74	86.1500
548.09	86.2500
548.43	88.0500
548.77	87.1000
549.12	88.2000
549.46	87.5000
549.80	89.1000
550.15	89.3000
550.49	90.7000
550.83	91.7000
551.17	93.4000
551.52	93.8500
551.86	95.8000
552.20	96.2000
552.55	95.9500
552.89	97.5500
553.23	98.5500
553.57	98.9500
553.92	99.9500
554.26	101.9500
554.60	101.3500
554.94	104.0500
555.29	105.2500
555.63	105.0500
555.97	105.5500
556.31	105.5500
556.66	108.4000
557.00	107.8000
557.34	109.8000
557.68	110.9000
558.02	112.4000
558.37	112.1000
558.71	114.8000
559.05	116.1500
559.39	117.6000
559.73	120.3000
560.08	120.0500
560.42	122.4000
560.76	122.3500
561.10	123.1000
561.44	124.7000
561.78	125.5500
562.13	128.4500
562.47	129.7000
562.81	132.2500
563.15	132.0000
563.49	132.1000
563.83	133.8500
564.17	134.9000
564.52	135.2000
564.86	137.9500
565.20	139.2000
565.54	140.7500
565.88	144.0500
566.22	145.8500
566.56	147.6000
566.90	149.8500
567.24	154.7500
567.59	156.4000
567.93	161.0500
568.27	163.4500
568.61	169.0000
568.95	173.8500
569.29	175.3500
569.63	179.9500
569.97	184.1500
570.31	187.6000
570.65	192.0000
570.99	194.6000
571.33	195.8000
571.67	194.8500
572.01	199.5500
572.35	207.7000
572.69	213.4000
573.03	215.7500
573.37	220.7000
573.71	225.9500
574.05	226.5000
574.39	225.9000
574.73	227.2500
575.07	226.1000
575.41	233.6500
575.75	233.2500
576.09	242.9000
576.43	256.9500
576.77	266.4000
577.11	272.4500
577.45	268.5500
577.79	259.8500
578.13	259.0000
578.47	260.3500
578.81	263.9500
579.15	267.0500
579.49	268.7000
579.83	284.3000
580.17	305.1500
580.51	324.7500
580.85	336.8000
581.19	323.9500
581.53	312.8500
581.87	296.0500
582.20	284.5000
582.54	276.0500
582.88	277.5500
583.22	284.6500
583.56	297.4000
583.90	315.4500
584.24	325.9500
584.58	327.7500
584.92	321.4500
585.25	315.2000
585.59	312.7000
585.93	319.5500
586.27	328.8500
586.61	328.2500
586.95	331.5500
587.29	331.5500
587.62	325.3500
587.96	322.6500
588.30	316.8500
588.64	312.9000
588.98	317.2000
589.31	317.0000
589.65	312.0500
589.99	313.8500
590.33	316.6500
590.67	317.1000
591.01	325.3000
591.34	341.4000
591.68	359.0000
592.02	378.1000
592.36	383.8500
592.69	378.0500
593.03	372.2000
593.37	370.2000
593.71	374.1500
594.04	379.6000
594.38	383.9000
594.72	382.7500
595.06	372.6500
595.39	370.7000
595.73	374.2500
596.07	380.1000
596.41	381.9000
596.74	398.9500
597.08	390.8500
597.42	404.0000
597.76	413.3500
598.09	427.1000
598.43	428.6000
598.77	432.5500
599.10	440.2000
599.44	441.6000
599.78	446.7500
600.11	444.1000
600.45	450.1000
600.79	441.4500
601.12	444.9500
601.46	445.4500
601.80	456.1000
602.13	463.4000
602.47	477.3500
602.81	479.6500
603.14	470.6500
603.48	466.7500
603.82	464.6500
604.15	468.0000
604.49	481.2500
604.82	484.3500
605.16	486.0500
605.50	483.8000
605.83	491.6500
606.17	495.9500
606.50	502.3500
606.84	503.0000
607.18	502.9500
607.51	500.3500
607.85	505.5500
608.18	498.1500
608.52	508.1000
608.86	515.4000
609.19	527.4500
609.53	525.2500
609.86	526.2000
610.20	528.0000
610.53	529.5500
610.87	524.5000
611.20	531.0500
611.54	524.3000
611.87	532.8500
612.21	536.6000
612.54	532.2000
612.88	536.9500
613.21	545.7500
613.55	554.4000
613.88	560.7000
614.22	574.4000
614.55	568.0000
614.89	566.5500
615.22	559.9500
615.56	556.4000
615.89	557.3000
616.23	556.1500
616.56	553.5500
616.90	558.7000
617.23	556.5500
617.57	565.0000
617.90	556.3500
618.24	559.1500
618.57	565.6500
618.90	568.9000
619.24	576.3000
619.57	565.4500
619.91	562.7000
620.24	548.8000
