OOIBase32 Version 1.0.0.8 Data File
++++++++++++++++++++++++++++++++++++
Date: Monday, January 21, 1980, 09:00:12
User: Valued Ocean Optics Customer
Spectrometer Serial Number: Unknown
Spectrometer Channel: Master
Integration Time (msec): 3
Spectra Averaged: 20
Boxcar Smoothing: 0
Correct for Electrical Dark: Disabled
Time Normalized: Disabled
Dual-beam Reference: Disabled
Reference Channel: Master
>>>>>Begin Spectral Data<<<<<
179.00	0.0000
179.38	0.0000
179.75	54.3000
180.13	55.0500
180.51	56.2500
180.88	55.2500
181.26	56.6500
181.64	57.0500
182.02	57.2000
182.39	56.2500
182.77	56.2500
183.15	55.7000
183.52	56.1000
183.90	55.0000
184.28	56.0000
184.65	55.8500
185.03	56.2000
185.41	55.8500
185.78	55.8000
186.16	56.0000
186.53	54.9500
186.91	55.1000
187.29	55.7000
187.66	55.2000
188.04	56.1500
188.42	56.9500
188.79	58.6500
189.17	57.2000
189.55	57.6000
189.92	57.7500
190.30	57.6500
190.67	58.4000
191.05	58.5500
191.43	58.7000
191.80	56.7500
192.18	57.4500
192.56	58.1500
192.93	57.6000
193.31	58.4000
193.68	58.8000
194.06	58.5500
194.44	58.4000
194.81	57.6500
195.19	58.0000
195.56	58.0500
195.94	58.1500
196.32	57.2000
196.69	56.7000
197.07	57.4500
197.44	57.5500
197.82	58.6000
198.19	58.8000
198.57	59.6500
198.95	58.5000
199.32	58.5000
199.70	58.7000
200.07	58.1500
200.45	58.3500
200.82	58.9500
201.20	58.6500
201.57	58.2000
201.95	58.2500
202.33	59.1000
202.70	59.0000
203.08	59.4000
203.45	58.3500
203.83	58.0500
204.20	57.7500
204.58	58.7000
204.95	58.6000
205.33	59.5000
205.70	58.8000
206.08	59.0000
206.45	60.0000
206.83	59.1500
207.20	58.3000
207.58	58.2500
207.95	59.2500
208.33	58.3500
208.70	58.4500
209.08	58.5000
209.45	60.9500
209.83	58.9500
210.20	59.5500
210.58	58.7000
210.95	59.4500
211.33	60.4500
211.70	58.9500
212.08	60.0500
212.45	59.5500
212.83	59.7000
213.20	60.9500
213.58	60.9500
213.95	61.5500
214.33	62.1500
214.70	61.5000
215.07	62.4000
215.45	61.6000
215.82	61.9000
216.20	62.5500
216.57	62.9000
216.95	62.7500
217.32	63.4000
217.70	63.0000
218.07	62.0000
218.44	62.6000
218.82	63.8500
219.19	63.9500
219.57	63.6000
219.94	63.4500
220.32	63.0000
220.69	63.3500
221.06	63.0000
221.44	62.0000
221.81	62.9000
222.19	62.1500
222.56	62.7000
222.93	63.0000
223.31	62.6500
223.68	63.2500
224.06	62.4500
224.43	63.6000
224.80	62.5500
225.18	62.5500
225.55	63.3500
225.92	63.0500
226.30	60.3500
226.67	61.1000
227.05	60.8500
227.42	60.7000
227.79	60.9000
228.17	60.5500
228.54	61.6500
228.91	61.7500
229.29	61.4500
229.66	61.6000
230.03	60.5000
230.41	61.4000
230.78	61.4500
231.15	60.9500
231.53	61.2000
231.90	62.1000
232.27	61.6000
232.65	61.0500
233.02	62.7000
233.39	62.2500
233.77	62.2500
234.14	62.9000
234.51	63.1500
234.89	63.6000
235.26	63.1000
235.63	63.0000
236.01	63.2500
236.38	63.6000
236.75	63.3500
237.12	64.4500
237.50	64.6000
237.87	64.5000
238.24	64.2000
238.62	65.4500
238.99	66.7500
239.36	66.4500
239.73	66.5000
240.11	67.5500
240.48	68.0500
240.85	67.3500
241.23	68.7000
241.60	68.3000
241.97	70.1000
242.34	71.5000
242.72	71.3500
243.09	72.3500
243.46	75.3500
243.83	76.7000
244.21	79.7000
244.58	86.6500
244.95	91.9500
245.32	95.9000
245.70	102.8500
246.07	109.7500
246.44	117.7000
246.81	127.2000
247.18	143.2000
247.56	160.3000
247.93	171.3500
248.30	187.1000
248.67	214.5500
249.04	245.7500
249.42	291.7500
249.79	361.8500
250.16	444.5000
250.53	533.9500
250.90	696.2500
251.28	1024.9000
251.65	1767.0000
252.02	3411.3999
252.39	4095.0000
252.76	4095.0000
253.14	4095.0000
253.51	4095.0000
253.88	4095.0000
254.25	4095.0000
254.62	1432.3000
254.99	802.2000
255.37	623.6500
255.74	508.6000
256.11	407.2500
256.48	326.2500
256.85	287.1500
257.22	241.7500
257.59	210.1000
257.97	166.9000
258.34	147.3500
258.71	135.3500
259.08	118.6000
259.45	105.5500
259.82	101.3500
260.19	94.9500
260.56	88.6000
260.94	84.1000
261.31	82.5000
261.68	79.1500
262.05	76.2000
262.42	75.8000
262.79	75.2500
263.16	76.1000
263.53	75.6500
263.90	79.7500
264.28	89.7000
264.65	100.2500
265.02	96.4500
265.39	85.7500
265.76	73.2500
266.13	69.1500
266.50	69.0500
266.87	68.7000
267.24	67.7000
267.61	66.1000
267.98	65.9000
268.35	66.2000
268.72	67.1500
269.09	66.5000
269.46	67.1500
269.84	67.3500
270.21	65.8500
270.58	65.4000
270.95	65.0500
271.32	65.3000
271.69	65.1500
272.06	64.9500
272.43	65.4000
272.80	65.6000
273.17	66.4000
273.54	67.6000
273.91	68.3500
274.28	74.1000
274.65	75.9500
275.02	75.3000
275.39	69.8500
275.76	66.2500
276.13	65.1000
276.50	66.3500
276.87	65.8500
277.24	66.5000
277.61	66.1500
277.98	65.8500
278.35	65.6000
278.72	67.5500
279.09	71.0500
279.46	74.7500
279.83	76.4500
280.20	74.4500
280.57	73.7000
280.94	75.4000
281.31	77.7000
281.67	79.3000
282.04	80.0500
282.41	75.6000
282.78	71.7000
283.15	68.7000
283.52	68.2000
283.89	68.2500
284.26	66.7500
284.63	66.4000
285.00	66.5500
285.37	68.1500
285.74	67.4500
286.11	66.1000
286.48	66.9000
286.85	68.8500
287.21	68.5500
287.58	72.6000
287.95	79.8000
288.32	94.5500
288.69	102.3000
289.06	97.7000
289.43	82.7500
289.80	72.7500
290.17	68.4000
290.54	68.4500
290.90	69.1500
291.27	72.0500
291.64	72.8500
292.01	73.9500
292.38	75.2500
292.75	76.4000
293.12	76.0500
293.48	80.9500
293.85	87.8500
294.22	97.1500
294.59	129.0500
294.96	208.6000
295.33	410.6500
295.70	774.6500
296.06	885.5000
296.43	746.1500
296.80	386.9500
297.17	159.2500
297.54	102.6500
297.91	86.0000
298.27	80.4500
298.64	78.6500
299.01	77.1500
299.38	76.3000
299.75	76.9000
300.11	81.6500
300.48	92.4500
300.85	131.0500
301.22	170.6500
301.59	180.2000
301.95	153.4000
302.32	105.9000
302.69	79.3500
303.06	71.3500
303.43	68.6000
303.79	69.2500
304.16	68.6500
304.53	70.0500
304.90	70.5000
305.26	70.0500
305.63	70.3000
306.00	71.9000
306.37	72.8500
306.73	75.0500
307.10	77.2000
307.47	78.9500
307.84	83.1500
308.20	86.2000
308.57	95.2000
308.94	101.5000
309.31	110.2000
309.67	125.6500
310.04	154.9000
310.41	213.8000
310.77	378.5000
311.14	864.8500
311.51	1729.2000
311.88	2773.8999
312.24	3234.6499
312.61	2800.7500
312.98	1892.2500
313.34	816.2500
313.71	322.0500
314.08	176.8000
314.44	133.0000
314.81	114.5500
315.18	104.2000
315.55	95.9500
315.91	90.9500
316.28	86.5000
316.65	83.2000
317.01	81.4500
317.38	79.3000
317.75	75.7500
318.11	73.8500
318.48	71.0500
318.84	70.3000
319.21	70.2000
319.58	69.3500
319.94	68.6500
320.31	67.7000
320.68	67.6000
321.04	67.2000
321.41	67.8500
321.78	66.9500
322.14	67.1000
322.51	67.3000
322.87	67.2500
323.24	67.4500
323.61	68.2500
323.97	66.2000
324.34	67.1000
324.70	66.0000
325.07	65.3000
325.44	65.5000
325.80	66.9500
326.17	66.9000
326.53	66.2000
326.90	66.6000
327.27	67.1500
327.63	65.8000
328.00	66.8500
328.36	67.0500
328.73	66.5000
329.09	68.0000
329.46	66.1000
329.83	66.9500
330.19	66.7000
330.56	67.5500
330.92	67.1500
331.29	66.8500
331.65	70.2500
332.02	75.2000
332.38	87.9000
332.75	122.4000
333.11	159.8000
333.48	171.7500
333.84	154.3500
334.21	115.7500
334.58	90.8500
334.94	75.5000
335.31	69.5500
335.67	68.3000
336.04	69.0000
336.40	67.5500
336.77	67.7500
337.13	68.3000
337.50	68.1500
337.86	68.3000
338.22	67.4500
338.59	66.8500
338.95	67.3000
339.32	67.5000
339.68	66.8000
340.05	66.8500
340.41	66.6500
340.78	66.7500
341.14	66.8000
341.51	67.3000
341.87	67.0000
342.24	68.6500
342.60	67.3000
342.96	66.0500
343.33	67.8000
343.69	66.1000
344.06	67.0500
344.42	66.6500
344.79	66.6000
345.15	68.3500
345.51	66.8000
345.88	68.7000
346.24	68.0000
346.61	67.5000
346.97	67.4500
347.34	67.3500
347.70	67.8500
348.06	67.5500
348.43	68.1500
348.79	67.8500
349.16	68.3000
349.52	67.1500
349.88	68.2000
350.25	68.2500
350.61	68.8000
350.97	68.5500
351.34	69.3000
351.70	69.7500
352.07	69.5500
352.43	70.5500
352.79	70.4500
353.16	69.8000
353.52	69.9500
353.88	71.2500
354.25	72.7000
354.61	72.2500
354.97	73.2000
355.34	74.1000
355.70	74.7500
356.06	76.1500
356.43	80.6500
356.79	82.6000
357.15	84.8000
357.52	87.0000
357.88	88.8000
358.24	90.7500
358.60	94.1500
358.97	98.2500
359.33	103.6000
359.69	105.9000
360.06	112.1000
360.42	119.7000
360.78	126.5000
361.14	135.5000
361.51	147.4000
361.87	166.9500
362.23	213.1000
362.60	324.6500
362.96	780.3500
363.32	2399.7000
363.68	4095.0000
364.05	4095.0000
364.41	4095.0000
364.77	4095.0000
365.13	4095.0000
365.50	4095.0000
365.86	1733.2000
366.22	821.7500
366.58	458.3000
366.95	277.2000
367.31	195.4000
367.67	166.1500
368.03	148.8500
368.39	141.1000
368.76	132.7500
369.12	127.2000
369.48	123.6000
369.84	118.3500
370.20	118.8500
370.57	114.4000
370.93	112.9000
371.29	110.7000
371.65	110.1000
372.01	111.0000
372.38	108.6500
372.74	107.5500
373.10	107.2000
373.46	108.5000
373.82	109.4000
374.18	107.0000
374.55	109.1500
374.91	110.4500
375.27	110.9500
375.63	109.5500
375.99	109.9500
376.35	111.3000
376.71	111.5000
377.08	114.5000
377.44	115.7500
377.80	117.9000
378.16	115.5500
378.52	115.5000
378.88	115.5500
379.24	118.1500
379.60	119.6000
379.97	122.2000
380.33	121.9500
380.69	119.9500
381.05	124.0500
381.41	125.5000
381.77	125.1000
382.13	127.9500
382.49	127.5000
382.85	125.7500
383.21	128.6500
383.57	125.5500
383.94	130.2000
384.30	130.4000
384.66	131.0000
385.02	128.9500
385.38	129.7500
385.74	131.6500
386.10	134.3500
386.46	135.1000
386.82	134.8500
387.18	132.2500
387.54	133.8500
387.90	133.4000
388.26	136.9000
388.62	140.1000
388.98	140.2000
389.34	142.2000
389.70	144.0500
390.06	136.1500
390.42	136.2500
390.78	141.6000
391.14	143.1500
391.50	136.9500
391.86	141.3000
392.22	141.3500
392.58	140.2500
392.94	132.0000
393.30	138.0000
393.66	138.2000
394.02	141.4000
394.38	134.8500
394.74	140.4000
395.10	138.7500
395.46	143.6500
395.82	140.8500
396.18	141.1000
396.54	147.9500
396.90	153.6000
397.26	152.2000
397.62	152.7000
397.98	159.4000
398.34	151.1000
398.70	153.2500
399.05	149.0000
399.41	152.1000
399.77	159.2500
400.13	166.5000
400.49	168.9500
400.85	178.6000
401.21	172.0000
401.57	195.5000
401.93	221.4000
402.29	308.8000
402.65	875.4500
403.00	3112.8501
403.36	4095.0000
403.72	4095.0000
404.08	4095.0000
404.44	4095.0000
404.80	3547.7500
405.16	1055.9000
405.52	452.2000
405.87	348.7000
406.23	470.9000
406.59	531.3000
406.95	579.8000
407.31	503.4000
407.67	368.4500
408.03	257.9500
408.38	199.9500
408.74	174.7500
409.10	161.5000
409.46	148.7000
409.82	149.5500
410.17	146.7000
410.53	138.1500
410.89	140.9000
411.25	128.7500
411.61	130.8500
411.97	135.9500
412.32	131.6000
412.68	134.0500
413.04	129.3500
413.40	119.6500
413.75	125.0500
414.11	127.2000
414.47	125.5000
414.83	129.3500
415.19	124.7000
415.54	118.9500
415.90	124.0500
416.26	120.5500
416.62	121.8000
416.97	115.9500
417.33	120.1000
417.69	119.2000
418.05	118.3000
418.40	114.3500
418.76	116.7500
419.12	121.3500
419.48	117.7000
419.83	119.3000
420.19	110.3500
420.55	110.1000
420.90	116.1500
421.26	111.0000
421.62	109.4000
421.98	113.4500
422.33	113.0000
422.69	113.3500
423.05	113.7000
423.40	107.4000
423.76	104.1000
424.12	112.0500
424.47	111.9000
424.83	111.2000
425.19	108.8000
425.54	108.3000
425.90	113.2500
426.26	116.9500
426.61	116.5000
426.97	108.2500
427.33	117.3000
427.68	121.4500
428.04	129.7500
428.40	140.5500
428.75	147.3500
429.11	140.7500
429.47	149.0000
429.82	150.7000
430.18	155.0500
430.53	154.2500
430.89	160.4500
431.25	172.6000
431.60	183.7000
431.96	195.0500
432.31	220.8500
432.67	274.2000
433.03	362.7000
433.38	537.9500
433.74	1591.4000
434.09	4095.0000
434.45	4095.0000
434.81	4095.0000
435.16	4095.0000
435.52	4095.0000
435.87	4095.0000
436.23	4095.0000
436.58	2330.8501
436.94	639.9500
437.30	337.3000
437.65	264.7500
438.01	211.4000
438.36	187.4500
438.72	171.0500
439.07	154.8500
439.43	147.1500
439.78	144.5000
440.14	138.1000
440.49	124.5500
440.85	119.8000
441.20	118.2500
441.56	112.6000
441.91	111.8000
442.27	104.1000
442.62	102.4500
442.98	99.9500
443.33	96.0500
443.69	94.0500
444.04	95.0500
444.40	89.6500
444.75	92.6500
445.11	90.2000
445.46	89.5000
445.82	87.9000
446.17	85.2000
446.53	87.2500
446.88	88.8000
447.23	83.0500
447.59	82.4000
447.94	81.9500
448.30	83.6500
448.65	81.7000
449.01	82.0500
449.36	81.5000
449.72	83.2500
450.07	83.1000
450.42	83.3000
450.78	81.4000
451.13	82.5000
451.49	80.4500
451.84	78.0000
452.19	78.8000
452.55	79.8500
452.90	79.7000
453.26	80.4500
453.61	80.6500
453.96	77.6500
454.32	79.0500
454.67	78.9000
455.02	75.7000
455.38	77.3000
455.73	76.4500
456.09	78.1500
456.44	78.7500
456.79	78.2000
457.15	77.3500
457.50	75.5500
457.85	75.9000
458.21	75.9500
458.56	76.8500
458.91	76.0500
459.27	74.2000
459.62	75.8000
459.97	75.2000
460.32	75.8000
460.68	75.7500
461.03	76.4500
461.38	75.4500
461.74	75.7000
462.09	75.7000
462.44	74.3000
462.80	73.9000
463.15	73.4000
463.50	73.3500
463.85	73.7000
464.21	73.5500
464.56	74.2000
464.91	72.8000
465.26	72.4500
465.62	72.4500
465.97	73.3500
466.32	73.2500
466.67	72.7000
467.03	72.9500
467.38	72.9000
467.73	73.3500
468.08	72.4500
468.44	72.3500
468.79	73.6000
469.14	71.8000
469.49	72.9000
469.85	72.2000
470.20	73.2000
470.55	74.0500
470.90	73.5000
471.25	72.5000
471.61	71.8000
471.96	72.8500
472.31	72.1000
472.66	72.6000
473.01	71.8000
473.36	74.2500
473.72	72.6500
474.07	72.6000
474.42	73.3000
474.77	71.9000
475.12	73.8000
475.47	72.0500
475.83	73.0500
476.18	72.8500
476.53	72.3000
476.88	73.7000
477.23	72.0500
477.58	71.4000
477.93	72.8500
478.28	72.0000
478.64	72.4500
478.99	72.6500
479.34	72.1000
479.69	72.4500
480.04	73.6000
480.39	73.6500
480.74	72.5500
481.09	72.4000
481.44	73.2000
481.79	71.6000
482.15	72.6000
482.50	72.1000
482.85	72.6000
483.20	72.9500
483.55	73.2000
483.90	73.6000
484.25	72.3500
484.60	71.8000
484.95	72.5000
485.30	71.6000
485.65	73.0500
486.00	72.5000
486.35	72.0500
486.70	71.8000
487.05	72.0500
487.40	72.3000
487.75	71.5000
488.10	71.7000
488.45	71.0500
488.80	71.6000
489.15	71.7500
489.50	74.7000
489.85	87.7500
490.20	102.6000
490.55	113.4000
490.90	116.6500
491.25	102.9000
491.60	91.8000
491.95	83.2000
492.30	75.6000
492.65	71.8500
493.00	71.5000
493.35	71.1500
493.70	70.5500
494.05	70.4500
494.40	70.1500
494.75	69.9500
495.10	70.7500
495.45	69.4000
495.80	70.3000
496.15	71.3000
496.50	68.8000
496.84	68.9500
497.19	69.1000
497.54	70.0000
497.89	69.3500
498.24	69.7000
498.59	70.5000
498.94	69.3500
499.29	68.5500
499.64	68.4500
499.99	68.0000
500.33	69.0500
500.68	70.6500
501.03	69.2000
501.38	68.9500
501.73	70.1000
502.08	69.0500
502.43	69.5500
502.77	68.7000
503.12	68.3000
503.47	68.2000
503.82	68.4000
504.17	68.7000
504.52	69.9500
504.86	68.4000
505.21	68.8500
505.56	68.6000
505.91	68.5500
506.26	67.4000
506.61	68.0500
506.95	69.1000
507.30	67.5000
507.65	68.0000
508.00	66.8000
508.35	68.4000
508.69	67.2000
509.04	68.1500
509.39	68.8000
509.74	68.0000
510.08	68.4500
510.43	68.2500
510.78	68.7500
511.13	69.0000
511.47	67.1500
511.82	67.4500
512.17	67.9000
512.52	68.2500
512.86	68.3500
513.21	67.6000
513.56	67.1000
513.91	67.6000
514.25	67.5500
514.60	66.7500
514.95	67.6000
515.30	67.6000
515.64	67.3000
515.99	68.2000
516.34	68.1000
516.68	67.6500
517.03	67.6500
517.38	67.2000
517.72	67.7500
518.07	68.6500
518.42	69.3000
518.76	68.2500
519.11	69.0000
519.46	69.3000
519.80	69.3500
520.15	68.7000
520.50	69.2500
520.84	68.6000
521.19	69.6000
521.54	68.9500
521.88	68.7000
522.23	69.3500
522.58	69.8500
522.92	70.1000
523.27	69.2500
523.61	69.3500
523.96	69.8000
524.31	70.0500
524.65	70.2000
525.00	69.2500
525.34	70.1500
525.69	68.5500
526.04	69.7500
526.38	70.0000
526.73	69.1500
527.07	68.8500
527.42	70.3500
527.76	70.0000
528.11	70.5000
528.46	68.9500
528.80	69.0500
529.15	69.9500
529.49	70.5000
529.84	70.1500
530.18	70.6500
530.53	71.1000
530.87	70.7500
531.22	71.0500
531.56	71.5500
531.91	71.0000
532.25	71.0500
532.60	72.3000
532.94	72.7500
533.29	73.4500
533.63	74.5500
533.98	74.2000
534.32	75.3000
534.67	76.5500
535.01	75.9500
535.36	78.1500
535.70	77.7500
536.05	79.7000
536.39	81.3500
536.74	81.4500
537.08	84.7500
537.43	86.8500
537.77	87.4500
538.12	91.2500
538.46	93.6500
538.80	99.2500
539.15	108.4000
539.49	119.0000
539.84	132.5500
540.18	136.4500
540.53	136.6000
540.87	137.2000
541.21	143.2500
541.56	151.0500
541.90	160.5000
542.25	172.6000
542.59	190.5500
542.93	225.9500
543.28	276.2000
543.62	388.1000
543.97	1098.3000
544.31	4095.0000
544.65	4095.0000
545.00	4095.0000
545.34	4095.0000
545.68	4095.0000
546.03	4095.0000
546.37	4095.0000
546.71	4095.0000
547.06	4095.0000
547.40	1204.9000
547.74	549.7500
548.09	346.4000
548.43	251.2000
548.77	203.8500
549.12	173.9500
549.46	150.3500
549.80	136.6500
550.15	130.3500
550.49	124.9000
550.83	118.1000
551.17	113.6500
551.52	106.9000
551.86	101.0500
552.20	96.8500
552.55	94.3000
552.89	90.9000
553.23	88.6000
553.57	87.3000
553.92	84.7500
554.26	82.7000
554.60	81.6000
554.94	79.1500
555.29	78.5500
555.63	76.6000
555.97	76.4500
556.31	76.0000
556.66	73.5500
557.00	73.2500
557.34	73.9000
557.68	73.1000
558.02	72.3000
558.37	71.1500
558.71	70.6000
559.05	71.2000
559.39	71.6500
559.73	69.8000
560.08	69.1000
560.42	69.0500
560.76	69.2000
561.10	68.8500
561.44	68.8500
561.78	68.5000
562.13	68.4500
562.47	68.7000
562.81	68.1000
563.15	68.8500
563.49	68.3500
563.83	67.2500
564.17	68.9500
564.52	67.6000
564.86	69.9500
565.20	68.9500
565.54	68.6000
565.88	69.1000
566.22	69.6500
566.56	69.6000
566.90	70.4000
567.24	70.5000
567.59	71.0500
567.93	70.3500
568.27	69.5000
568.61	70.3000
568.95	70.0500
569.29	70.4000
569.63	71.5500
569.97	72.4000
570.31	73.8500
570.65	74.8000
570.99	76.0000
571.33	77.1500
571.67	77.9500
572.01	78.4000
572.35	79.1500
572.69	81.6500
573.03	82.7500
573.37	86.1000
573.71	88.4500
574.05	91.4500
574.39	101.0000
574.73	125.9000
575.07	524.8000
575.41	2019.8000
575.75	3013.6001
576.09	3629.0000
576.43	3126.2500
576.77	2372.8999
577.11	2040.6000
577.45	2912.4500
577.79	3514.3501
578.13	3902.6001
578.47	3529.4500
578.81	2611.9500
579.15	2006.6500
579.49	1430.2500
579.83	821.4000
580.17	409.4000
580.51	219.8500
580.85	145.6500
581.19	116.2000
581.53	100.1000
581.87	91.9000
582.20	86.2000
582.54	82.5000
582.88	79.7500
583.22	76.7000
583.56	76.9500
583.90	76.3500
584.24	74.7000
584.58	73.4000
584.92	72.4500
585.25	71.9500
585.59	71.0000
585.93	70.7000
586.27	70.3000
586.61	69.7500
586.95	69.1000
587.29	69.4500
587.62	67.7000
587.96	67.8000
588.30	68.2000
588.64	66.7500
588.98	67.1500
589.31	66.3000
589.65	65.4500
589.99	65.6000
590.33	66.4500
590.67	65.5000
591.01	65.2000
591.34	66.5000
591.68	66.2000
592.02	65.3000
592.36	64.9000
592.69	65.7500
593.03	64.6500
593.37	65.6500
593.71	65.4000
594.04	65.4500
594.38	65.1000
594.72	65.7500
595.06	65.4000
595.39	64.8500
595.73	64.6000
596.07	65.1500
596.41	64.7500
596.74	68.9000
597.08	64.6500
597.42	64.4000
597.76	64.0000
598.09	63.8500
598.43	64.1500
598.77	64.2000
599.10	64.6500
599.44	64.9500
599.78	66.7500
600.11	65.3000
600.45	63.8000
600.79	63.5000
601.12	63.7000
601.46	63.3000
601.80	65.0000
602.13	64.6000
602.47	65.0000
602.81	64.9500
603.14	65.3500
603.48	64.5500
603.82	63.9500
604.15	64.0000
604.49	63.2500
604.82	63.8500
605.16	64.1500
605.50	64.4500
605.83	64.4500
606.17	64.2000
606.50	64.8500
