OOIBase32 Version 1.0.0.8 Data File
++++++++++++++++++++++++++++++++++++
Date: Monday, January 21, 1980, 08:53:25
User: Valued Ocean Optics Customer
Spectrometer Serial Number: Unknown
Spectrometer Channel: Master
Integration Time (msec): 6
Spectra Averaged: 20
Boxcar Smoothing: 0
Correct for Electrical Dark: Disabled
Time Normalized: Disabled
Dual-beam Reference: Disabled
Reference Channel: Master
>>>>>Begin Spectral Data<<<<<
179.00	0.0000
179.38	0.0000
179.75	56.6500
180.13	54.1000
180.51	55.0500
180.88	56.4000
181.26	56.5500
181.64	56.8000
182.02	55.7500
182.39	56.1500
182.77	56.1500
183.15	55.5500
183.52	57.0500
183.90	56.2500
184.28	55.1000
184.65	56.2000
185.03	55.9500
185.41	55.1500
185.78	56.4500
186.16	55.5500
186.53	55.6000
186.91	56.1500
187.29	56.0000
187.66	56.1000
188.04	57.0000
188.42	60.0500
188.79	59.7500
189.17	60.8000
189.55	61.1500
189.92	59.7000
190.30	59.3000
190.67	58.8000
191.05	59.9000
191.43	60.0500
191.80	60.4000
192.18	60.7000
192.56	60.1000
192.93	59.1500
193.31	60.7000
193.68	59.9500
194.06	60.9500
194.44	61.6000
194.81	60.4000
195.19	59.6500
195.56	60.1500
195.94	61.4000
196.32	60.0000
196.69	60.4500
197.07	60.8500
197.44	61.4500
197.82	60.8000
198.19	60.0000
198.57	60.1000
198.95	59.6500
199.32	61.0000
199.70	60.4500
200.07	60.9000
200.45	60.2000
200.82	60.5000
201.20	60.6500
201.57	60.4000
201.95	60.8500
202.33	60.4500
202.70	60.0500
203.08	60.6000
203.45	60.6000
203.83	60.5000
204.20	60.8000
204.58	60.2500
204.95	60.2000
205.33	60.2500
205.70	60.3000
206.08	61.1000
206.45	61.8500
206.83	61.1500
207.20	60.7500
207.58	61.4000
207.95	61.2000
208.33	60.5000
208.70	61.5000
209.08	60.6500
209.45	61.2500
209.83	61.2500
210.20	60.6500
210.58	60.1000
210.95	60.1000
211.33	60.4500
211.70	61.2500
212.08	61.2000
212.45	61.1000
212.83	60.5500
213.20	59.2500
213.58	61.0500
213.95	61.8500
214.33	60.9000
214.70	61.2500
215.07	60.2000
215.45	60.5000
215.82	61.3000
216.20	61.1500
216.57	61.5500
216.95	60.5500
217.32	61.3000
217.70	60.5500
218.07	60.5500
218.44	60.8000
218.82	60.8000
219.19	61.9000
219.57	61.1000
219.94	60.7000
220.32	60.4500
220.69	60.5000
221.06	61.5500
221.44	61.1500
221.81	61.0000
222.19	61.1000
222.56	60.5500
222.93	60.8500
223.31	61.1500
223.68	61.3500
224.06	60.7500
224.43	61.8000
224.80	60.8000
225.18	60.8000
225.55	59.4500
225.92	61.3000
226.30	60.9500
226.67	60.3500
227.05	61.3500
227.42	60.2000
227.79	61.3000
228.17	60.8000
228.54	61.3500
228.91	61.0500
229.29	60.7000
229.66	61.6500
230.03	61.7500
230.41	61.7000
230.78	61.3500
231.15	61.4000
231.53	60.8000
231.90	61.6500
232.27	60.9000
232.65	62.0500
233.02	61.8000
233.39	62.0500
233.77	61.2000
234.14	60.2000
234.51	60.4500
234.89	60.3000
235.26	61.3000
235.63	62.1000
236.01	60.7000
236.38	61.1000
236.75	61.0500
237.12	61.2500
237.50	61.4000
237.87	61.2000
238.24	61.7000
238.62	61.6500
238.99	61.6500
239.36	61.3500
239.73	60.4500
240.11	61.8500
240.48	60.2500
240.85	61.4000
241.23	61.5000
241.60	60.8000
241.97	62.5000
242.34	61.2000
242.72	61.0500
243.09	62.1000
243.46	62.2000
243.83	60.7500
244.21	60.4500
244.58	60.9500
244.95	61.4500
245.32	61.0000
245.70	60.8500
246.07	62.3000
246.44	61.4000
246.81	61.1500
247.18	60.4000
247.56	62.5000
247.93	61.3000
248.30	61.6000
248.67	61.5500
249.04	62.4500
249.42	62.4500
249.79	61.4500
250.16	61.0000
250.53	61.9500
250.90	61.2000
251.28	61.5500
251.65	61.9500
252.02	62.0000
252.39	62.4000
252.76	61.6000
253.14	61.6000
253.51	62.0000
253.88	62.0000
254.25	62.4500
254.62	60.5000
254.99	61.1000
255.37	61.4000
255.74	61.7000
256.11	61.5000
256.48	61.9000
256.85	61.8000
257.22	62.3500
257.59	61.3500
257.97	60.9000
258.34	62.3000
258.71	61.7000
259.08	62.0000
259.45	62.8500
259.82	62.2000
260.19	63.3500
260.56	62.0000
260.94	62.2000
261.31	61.1000
261.68	62.4000
262.05	61.2500
262.42	62.6500
262.79	62.5500
263.16	63.0500
263.53	61.6500
263.90	61.6000
264.28	61.6000
264.65	61.6000
265.02	61.6000
265.39	61.8000
265.76	62.1500
266.13	61.3500
266.50	62.2000
266.87	62.3500
267.24	62.5500
267.61	62.2000
267.98	62.5000
268.35	62.0500
268.72	61.5500
269.09	62.1000
269.46	62.1500
269.84	62.2500
270.21	61.7500
270.58	62.5500
270.95	62.4500
271.32	62.2500
271.69	62.1500
272.06	62.5000
272.43	62.7000
272.80	62.5000
273.17	61.0500
273.54	63.1000
273.91	61.9500
274.28	61.5000
274.65	62.5000
275.02	61.1000
275.39	61.7500
275.76	62.1500
276.13	62.8000
276.50	62.1500
276.87	61.9500
277.24	62.1000
277.61	63.2000
277.98	62.9000
278.35	61.8000
278.72	62.1500
279.09	62.7500
279.46	62.2500
279.83	62.1000
280.20	62.7000
280.57	62.2000
280.94	62.1500
281.31	63.0000
281.67	62.7000
282.04	62.0500
282.41	62.9000
282.78	62.0500
283.15	61.3500
283.52	62.1500
283.89	63.8000
284.26	62.9000
284.63	62.3500
285.00	61.8000
285.37	62.6500
285.74	62.3500
286.11	62.9000
286.48	62.7000
286.85	62.1500
287.21	61.9000
287.58	62.0500
287.95	62.8000
288.32	63.3000
288.69	61.9500
289.06	62.2500
289.43	62.7000
289.80	62.4000
290.17	62.6500
290.54	61.7500
290.90	62.8000
291.27	62.7500
291.64	62.5000
292.01	62.9000
292.38	62.5000
292.75	62.2500
293.12	62.6000
293.48	61.6000
293.85	62.2000
294.22	62.5000
294.59	62.3000
294.96	62.9000
295.33	62.1500
295.70	62.2000
296.06	61.7500
296.43	62.0000
296.80	62.4500
297.17	61.8000
297.54	63.1000
297.91	62.9000
298.27	61.7000
298.64	62.4000
299.01	62.9000
299.38	63.1000
299.75	61.7500
300.11	62.2500
300.48	63.0000
300.85	62.5000
301.22	64.1500
301.59	62.3000
301.95	63.6500
302.32	63.7500
302.69	62.2500
303.06	62.4500
303.43	63.6000
303.79	62.5000
304.16	60.7000
304.53	62.3500
304.90	63.5000
305.26	63.7500
305.63	62.5500
306.00	62.3500
306.37	62.4500
306.73	62.4500
307.10	62.7500
307.47	63.7000
307.84	63.4500
308.20	63.7000
308.57	63.4500
308.94	63.8000
309.31	63.1500
309.67	63.1000
310.04	63.1000
310.41	62.1000
310.77	63.4500
311.14	62.6000
311.51	63.4000
311.88	63.4000
312.24	62.3000
312.61	63.3500
312.98	63.4000
313.34	62.9000
313.71	63.4000
314.08	62.4000
314.44	62.7000
314.81	64.0000
315.18	63.3000
315.55	63.3500
315.91	63.0500
316.28	63.3000
316.65	62.5000
317.01	63.3500
317.38	63.3500
317.75	64.2500
318.11	63.7000
318.48	64.0000
318.84	64.3500
319.21	63.7000
319.58	63.7000
319.94	62.9500
320.31	63.6500
320.68	63.2000
321.04	62.1500
321.41	63.5500
321.78	63.2000
322.14	63.2000
322.51	63.7000
322.87	63.1500
323.24	63.5000
323.61	63.7000
323.97	63.3500
324.34	62.9500
324.70	63.8500
325.07	64.0500
325.44	63.4000
325.80	64.5000
326.17	64.5000
326.53	63.7000
326.90	62.8500
327.27	63.2500
327.63	64.3500
328.00	64.3500
328.36	64.1000
328.73	63.5000
329.09	64.6000
329.46	65.2000
329.83	64.1000
330.19	64.2000
330.56	62.7000
330.92	64.6500
331.29	64.5500
331.65	64.1500
332.02	64.8000
332.38	65.4000
332.75	64.3500
333.11	64.5500
333.48	64.4000
333.84	64.4500
334.21	65.2000
334.58	65.2000
334.94	65.5000
335.31	65.2000
335.67	65.2000
336.04	64.0000
336.40	64.9500
336.77	66.8000
337.13	65.4500
337.50	64.8500
337.86	64.3500
338.22	65.1500
338.59	65.5500
338.95	64.7500
339.32	64.4500
339.68	66.0000
340.05	65.2000
340.41	65.0000
340.78	65.0500
341.14	66.2500
341.51	65.7000
341.87	66.0000
342.24	66.5500
342.60	66.2500
342.96	66.4000
343.33	67.1500
343.69	65.4000
344.06	67.2500
344.42	66.6000
344.79	66.0000
345.15	67.0500
345.51	65.9500
345.88	65.7500
346.24	65.8500
346.61	66.5500
346.97	66.6500
347.34	67.2000
347.70	67.3000
348.06	67.5500
348.43	68.0500
348.79	66.2000
349.16	67.0500
349.52	67.6000
349.88	67.1500
350.25	67.5000
350.61	67.1500
350.97	67.2500
351.34	68.3500
351.70	68.5500
352.07	68.6500
352.43	69.0000
352.79	67.7500
353.16	68.5500
353.52	67.9500
353.88	69.0500
354.25	68.6000
354.61	69.1000
354.97	69.0000
355.34	69.1500
355.70	69.5500
356.06	69.7500
356.43	70.6000
356.79	70.7500
357.15	70.4000
357.52	69.7500
357.88	70.6500
358.24	71.1500
358.60	70.5500
358.97	70.0500
359.33	72.1500
359.69	71.6000
360.06	73.2000
360.42	71.5000
360.78	72.1000
361.14	72.7500
361.51	74.1500
361.87	73.3500
362.23	72.7500
362.60	74.6500
362.96	73.8000
363.32	73.9500
363.68	73.9500
364.05	74.3500
364.41	74.6500
364.77	75.0000
365.13	75.1000
365.50	76.2000
365.86	77.4000
366.22	76.4500
366.58	77.6500
366.95	78.0500
367.31	77.5500
367.67	78.4000
368.03	77.5500
368.39	78.0000
368.76	78.7000
369.12	78.3000
369.48	80.4500
369.84	79.7000
370.20	81.1000
370.57	81.7500
370.93	81.3500
371.29	81.2000
371.65	81.9500
372.01	82.8000
372.38	81.8500
372.74	82.7500
373.10	83.1000
373.46	83.5000
373.82	84.6000
374.18	84.4500
374.55	84.6500
374.91	84.5000
375.27	85.5500
375.63	86.8000
375.99	86.8000
376.35	88.0000
376.71	86.4500
377.08	87.8500
377.44	90.1500
377.80	91.2000
378.16	89.3000
378.52	91.1000
378.88	92.3500
379.24	94.2000
379.60	93.8500
379.97	95.9500
380.33	96.3500
380.69	95.9500
381.05	97.9000
381.41	99.6000
381.77	98.2000
382.13	101.3000
382.49	100.7000
382.85	101.2000
383.21	102.7500
383.57	101.0000
383.94	106.5500
384.30	106.2500
384.66	106.5000
385.02	105.6000
385.38	108.2000
385.74	108.8000
386.10	111.1500
386.46	112.4500
386.82	113.1000
387.18	112.5500
387.54	113.8500
387.90	113.6500
388.26	117.3500
388.62	118.8000
388.98	118.1000
389.34	119.6000
389.70	119.3000
390.06	117.3000
390.42	118.9500
390.78	125.6500
391.14	127.0000
391.50	126.9000
391.86	130.3500
392.22	130.8000
392.58	130.1000
392.94	123.8000
393.30	129.3500
393.66	130.4000
394.02	132.9000
394.38	127.5000
394.74	134.8500
395.10	134.0500
395.46	138.7500
395.82	137.1000
396.18	136.4000
396.54	143.7500
396.90	146.9500
397.26	144.8500
397.62	144.8000
397.98	152.3000
398.34	144.1000
398.70	146.0500
399.05	143.0500
399.41	143.0500
399.77	148.3500
400.13	152.8000
400.49	155.5000
400.85	160.4500
401.21	151.3500
401.57	164.6000
401.93	162.7500
402.29	160.6000
402.65	163.6000
403.00	168.1000
403.36	171.4000
403.72	169.2000
404.08	179.3000
404.44	165.9000
404.80	171.4000
405.16	178.6500
405.52	186.5500
405.87	187.3500
406.23	190.7000
406.59	178.4000
406.95	179.2500
407.31	183.5500
407.67	186.0000
408.03	184.3500
408.38	195.0000
408.74	203.3000
409.10	204.1500
409.46	193.8000
409.82	203.2000
410.17	201.1500
410.53	196.1500
410.89	205.0500
411.25	189.4500
411.61	199.3500
411.97	211.8000
412.32	209.8000
412.68	218.2500
413.04	211.1000
413.40	192.7000
413.75	207.9000
414.11	213.9000
414.47	213.5000
414.83	227.9500
415.19	222.0500
415.54	210.4000
415.90	225.7500
416.26	221.4500
416.62	230.5500
416.97	217.0500
417.33	233.7000
417.69	237.1000
418.05	231.7000
418.40	221.9000
418.76	234.9500
419.12	249.3000
419.48	244.0500
419.83	256.6500
420.19	229.1500
420.55	236.4500
420.90	261.8500
421.26	245.4500
421.62	243.2500
421.98	260.8500
422.33	268.8500
422.69	273.5500
423.05	279.5500
423.40	251.2000
423.76	244.3500
424.12	275.8000
424.47	272.2000
424.83	273.3500
425.19	270.6000
425.54	267.5500
425.90	283.4500
426.26	295.9500
426.61	297.5500
426.97	254.4000
427.33	290.6000
427.68	290.8500
428.04	308.9500
428.40	324.2500
428.75	334.1500
429.11	304.0500
429.47	335.5000
429.82	332.6000
430.18	331.4000
430.53	316.8500
430.89	319.0500
431.25	330.4500
431.60	341.1500
431.96	333.8000
432.31	327.6500
432.67	352.4000
433.03	359.1500
433.38	346.1500
433.74	362.2500
434.09	352.5500
434.45	339.3000
434.81	339.8500
435.16	363.8500
435.52	341.6500
435.87	331.5000
436.23	339.6000
436.58	348.4000
436.94	367.7500
437.30	368.5500
437.65	387.7000
438.01	373.5000
438.36	384.1500
438.72	379.6500
439.07	368.4500
439.43	377.0000
439.78	402.8000
440.14	422.3000
440.49	387.5500
440.85	392.3500
441.20	409.3000
441.56	402.1500
441.91	439.4000
442.27	405.9000
442.62	410.4500
442.98	420.9000
443.33	412.6500
443.69	420.3500
444.04	413.0000
444.40	397.3500
444.75	442.1000
445.11	440.6500
445.46	455.4000
445.82	453.6000
446.17	425.1500
446.53	453.5500
446.88	495.8500
447.23	420.7000
447.59	424.3500
447.94	424.9500
448.30	463.5000
448.65	445.7500
449.01	472.4000
449.36	475.2500
449.72	511.5500
450.07	530.3000
450.42	513.0500
450.78	494.1000
451.13	517.1500
451.49	497.5000
451.84	479.4500
452.19	489.1500
452.55	516.4500
452.90	518.8000
453.26	554.3500
453.61	575.3000
453.96	486.5500
454.32	545.1000
454.67	551.0500
455.02	512.0500
455.38	535.2500
455.73	533.1000
456.09	578.5000
456.44	576.2000
456.79	568.4500
457.15	569.0500
457.50	540.7000
457.85	562.3500
458.21	556.0000
458.56	589.7500
458.91	575.7000
459.27	542.2500
459.62	563.9000
459.97	572.1500
460.32	593.9500
460.68	597.2500
461.03	590.8000
461.38	607.8000
461.74	666.9500
462.09	646.1000
462.44	614.5000
462.80	608.6500
463.15	616.2500
463.50	619.3000
463.85	667.5000
464.21	638.6500
464.56	678.3500
464.91	637.1000
465.26	654.1000
465.62	650.8000
465.97	695.5000
466.32	696.0000
466.67	695.3000
467.03	700.1500
467.38	712.4000
467.73	723.7500
468.08	742.7000
468.44	750.0500
468.79	750.4000
469.14	711.9500
469.49	752.2000
469.85	776.4000
470.20	844.7000
470.55	837.8000
470.90	843.8000
471.25	811.3000
471.61	840.2500
471.96	846.7500
472.31	869.4500
472.66	867.3500
473.01	897.3500
473.36	922.6500
473.72	907.5000
474.07	947.6000
474.42	953.5500
474.77	953.1000
475.12	982.0000
475.47	1011.0000
475.83	1017.4500
476.18	1014.3500
476.53	1007.0000
476.88	1062.7000
477.23	1072.2000
477.58	1060.2500
477.93	1085.6500
478.28	1077.3000
478.64	1105.6000
478.99	1135.7500
479.34	1151.9500
479.69	1175.3000
480.04	1202.5500
480.39	1208.5000
480.74	1186.0500
481.09	1261.1500
481.44	1266.5000
481.79	1256.5500
482.15	1269.5000
482.50	1299.9500
482.85	1297.9000
483.20	1339.3500
483.55	1336.2000
483.90	1372.3500
484.25	1362.5500
484.60	1361.3500
484.95	1397.3500
485.30	1405.3500
485.65	1427.4000
486.00	1444.3000
486.35	1421.6500
486.70	1439.4500
487.05	1492.6000
487.40	1494.2000
487.75	1510.0000
488.10	1522.3500
488.45	1512.5500
488.80	1526.8500
489.15	1563.6500
489.50	1565.5000
489.85	1579.2500
490.20	1577.3000
490.55	1600.8000
490.90	1617.4500
491.25	1626.7000
491.60	1617.5000
491.95	1622.8500
492.30	1640.4000
492.65	1663.4000
493.00	1662.4000
493.35	1669.1500
493.70	1684.7000
494.05	1697.1500
494.40	1723.4000
494.75	1729.0000
495.10	1721.3000
495.45	1730.2500
495.80	1746.3000
496.15	1765.6000
496.50	1751.1500
496.84	1756.8000
497.19	1764.5000
497.54	1787.9500
497.89	1786.8000
498.24	1794.4500
498.59	1819.3500
498.94	1804.8000
499.29	1817.8500
499.64	1820.9000
499.99	1841.2000
500.33	1849.9000
500.68	1852.5000
501.03	1861.0000
501.38	1867.3000
501.73	1895.5500
502.08	1886.4500
502.43	1908.4000
502.77	1919.6500
503.12	1925.1000
503.47	1932.1000
503.82	1941.3500
504.17	1963.7500
504.52	1978.3500
504.86	1981.6000
505.21	2012.1500
505.56	2001.0000
505.91	2010.8500
506.26	2013.1500
506.61	2038.3000
506.95	2042.4000
507.30	2052.8999
507.65	2080.0000
508.00	2072.6001
508.35	2089.0500
508.69	2095.2500
509.04	2115.5500
509.39	2109.2000
509.74	2115.3000
510.08	2132.8000
510.43	2157.5500
510.78	2162.1499
511.13	2172.6001
511.47	2183.5000
511.82	2199.1499
512.17	2197.5000
512.52	2223.2000
512.86	2239.6001
513.21	2253.5500
513.56	2256.3501
513.91	2281.3000
514.25	2284.8999
514.60	2296.2000
514.95	2306.7000
515.30	2313.1499
515.64	2314.4500
515.99	2351.0500
516.34	2357.3501
516.68	2374.4500
517.03	2384.3000
517.38	2392.0000
517.72	2429.6499
518.07	2417.2500
518.42	2425.2000
518.76	2454.6499
519.11	2460.9500
519.46	2474.5500
519.80	2465.3000
520.15	2485.2500
520.50	2509.4500
520.84	2507.5000
521.19	2523.6499
521.54	2536.2500
521.88	2533.7000
522.23	2564.5500
522.58	2552.1001
522.92	2561.0500
523.27	2585.7500
523.61	2589.5500
523.96	2595.5000
524.31	2630.3501
524.65	2641.1499
525.00	2631.6001
525.34	2609.2000
525.69	2622.5500
526.04	2663.1001
526.38	2668.6499
526.73	2675.8501
527.07	2691.8999
527.42	2686.0500
527.76	2702.7500
528.11	2720.8000
528.46	2705.1001
528.80	2711.1499
529.15	2699.5000
529.49	2708.0500
529.84	2723.9500
530.18	2729.4500
530.53	2760.7500
530.87	2747.8999
531.22	2744.1499
531.56	2753.2000
531.91	2764.8999
532.25	2758.1001
532.60	2758.0000
532.94	2776.5000
533.29	2768.5000
533.63	2760.5500
533.98	2767.4500
534.32	2784.8000
534.67	2814.3000
535.01	2823.5500
535.36	2813.1499
535.70	2834.8999
536.05	2839.6001
536.39	2857.7500
536.74	2829.1499
537.08	2813.6499
537.43	2816.3000
537.77	2847.8000
538.12	2874.7000
538.46	2876.1001
538.80	2889.9500
539.15	2867.8000
539.49	2882.7000
539.84	2903.0000
540.18	2904.8501
540.53	2902.8501
540.87	2904.2000
541.21	2936.4500
541.56	2928.5000
541.90	2945.2500
542.25	2931.0500
542.59	2925.1499
542.93	2963.2000
543.28	2946.8999
543.62	2962.1499
543.97	2968.8501
544.31	2981.1499
544.65	2984.3501
545.00	3000.2500
545.34	3008.0000
545.68	3013.7500
546.03	3003.4500
546.37	3025.0500
546.71	3027.6499
547.06	3042.9500
547.40	3043.5500
547.74	3078.5500
548.09	3060.5500
548.43	3069.4500
548.77	3081.3999
549.12	3077.4500
549.46	3076.0500
549.80	3103.6499
550.15	3121.6001
550.49	3115.0500
550.83	3123.3501
551.17	3142.6499
551.52	3130.0000
551.86	3132.8000
552.20	3155.5500
552.55	3176.7000
552.89	3174.1001
553.23	3184.8501
553.57	3200.5500
553.92	3196.0500
554.26	3224.2000
554.60	3208.3501
554.94	3221.8000
555.29	3236.6499
555.63	3243.7500
555.97	3263.3000
556.31	3259.8501
556.66	3272.2500
557.00	3262.3999
557.34	3283.3501
557.68	3305.6499
558.02	3308.8000
558.37	3316.0500
558.71	3319.3501
559.05	3314.0000
559.39	3334.3999
559.73	3347.6499
560.08	3347.8999
560.42	3367.3000
560.76	3360.5000
561.10	3373.0500
561.44	3368.8000
561.78	3393.1001
562.13	3402.5000
562.47	3383.1499
562.81	3414.8501
563.15	3414.2500
563.49	3422.2500
563.83	3441.8501
564.17	3433.8501
564.52	3433.6499
564.86	3456.9500
565.20	3453.8000
565.54	3454.8000
565.88	3454.9500
566.22	3468.8999
566.56	3459.4500
566.90	3480.5000
567.24	3487.8999
567.59	3481.0500
567.93	3489.4500
568.27	3509.8000
568.61	3522.1001
568.95	3499.6499
569.29	3500.3501
569.63	3540.2000
569.97	3530.9500
570.31	3478.7000
570.65	3513.9500
570.99	3522.8999
571.33	3539.6499
571.67	3523.1499
572.01	3530.8501
572.35	3552.6499
572.69	3553.1499
573.03	3561.4500
573.37	3551.1001
573.71	3543.3999
574.05	3529.4500
574.39	3537.5500
574.73	3564.0000
575.07	3543.7500
575.41	3552.1499
575.75	3567.4500
576.09	3592.0500
576.43	3578.7500
576.77	3576.6001
577.11	3557.1001
577.45	3572.8000
577.79	3554.3501
578.13	3585.1001
578.47	3550.9500
578.81	3559.6001
579.15	3570.5500
579.49	3605.0500
579.83	3599.6001
580.17	3603.3501
580.51	3595.2000
580.85	3605.3000
581.19	3599.5500
581.53	3579.2500
581.87	3596.8000
582.20	3595.6001
582.54	3598.4500
582.88	3595.5000
583.22	3574.6499
583.56	3566.0500
583.90	3611.0500
584.24	3596.4500
584.58	3591.3000
584.92	3619.7500
585.25	3613.5000
585.59	3614.8501
585.93	3624.1001
586.27	3637.5000
586.61	3593.2000
586.95	3629.0500
587.29	3634.3999
587.62	3609.8000
587.96	3635.6001
588.30	3642.5500
588.64	3626.4500
588.98	3636.4500
589.31	3643.8501
589.65	3629.0000
589.99	3603.6001
590.33	3643.8501
590.67	3650.9500
591.01	3651.7000
591.34	3656.5500
591.68	3654.1499
592.02	3672.1499
592.36	3668.7000
592.69	3657.1001
593.03	3663.3999
593.37	3679.8000
593.71	3670.8501
594.04	3667.6001
594.38	3666.8501
594.72	3692.5000
595.06	3675.9500
595.39	3678.5500
595.73	3691.8999
