OOIBase32 Version 1.0.0.8 Data File
++++++++++++++++++++++++++++++++++++
Date: Monday, January 21, 1980, 08:53:25
User: Valued Ocean Optics Customer
Spectrometer Serial Number: Unknown
Spectrometer Channel: Master
Integration Time (msec): 6
Spectra Averaged: 20
Boxcar Smoothing: 0
Correct for Electrical Dark: Disabled
Time Normalized: Disabled
Dual-beam Reference: Disabled
Reference Channel: Master
>>>>>Begin Spectral Data<<<<<
179.00	0.0000
179.38	0.0000
179.75	54.6500
180.13	55.5500
180.51	56.1500
180.88	55.4500
181.26	56.1000
181.64	55.8000
182.02	56.3000
182.39	56.3500
182.77	55.3500
183.15	56.6000
183.52	56.2500
183.90	56.2500
184.28	55.9000
184.65	55.6000
185.03	55.6500
185.41	55.7000
185.78	55.5500
186.16	54.2000
186.53	55.8500
186.91	56.0000
187.29	56.8000
187.66	56.5500
188.04	56.1000
188.42	57.5000
188.79	57.2500
189.17	57.7000
189.55	56.8000
189.92	56.9500
190.30	57.5000
190.67	57.0000
191.05	55.5500
191.43	56.5500
191.80	56.4000
192.18	56.9000
192.56	56.3000
192.93	57.0500
193.31	56.6500
193.68	56.0500
194.06	56.6000
194.44	57.2500
194.81	56.9000
195.19	56.1000
195.56	56.7500
195.94	56.7000
196.32	56.6000
196.69	55.9500
197.07	57.0000
197.44	56.6000
197.82	56.5000
198.19	56.6500
198.57	57.1000
198.95	57.2000
199.32	55.0000
199.70	56.9500
200.07	56.5000
200.45	57.1000
200.82	57.4000
201.20	56.6500
201.57	56.9000
201.95	57.1000
202.33	57.5500
202.70	57.0000
203.08	57.2000
203.45	57.5000
203.83	57.2000
204.20	56.4500
204.58	56.7500
204.95	56.5500
205.33	56.1000
205.70	57.6500
206.08	56.9500
206.45	57.0500
206.83	56.9000
207.20	55.8500
207.58	55.8000
207.95	56.7000
208.33	56.5500
208.70	56.8500
209.08	56.3000
209.45	56.9000
209.83	56.3000
210.20	56.8500
210.58	56.9500
210.95	57.6500
211.33	56.3000
211.70	57.0500
212.08	57.1000
212.45	57.3500
212.83	57.0000
213.20	56.6500
213.58	55.7000
213.95	57.8500
214.33	57.4500
214.70	56.8000
215.07	57.2500
215.45	56.8500
215.82	57.1500
216.20	56.8500
216.57	57.7500
216.95	57.4000
217.32	58.0000
217.70	55.9000
218.07	56.8500
218.44	57.2000
218.82	57.0500
219.19	57.2000
219.57	57.0500
219.94	57.4000
220.32	57.1000
220.69	55.8000
221.06	57.0500
221.44	56.5000
221.81	57.1000
222.19	56.9000
222.56	58.7500
222.93	56.6500
223.31	57.4500
223.68	57.3500
224.06	56.3000
224.43	56.5000
224.80	57.2000
225.18	57.5000
225.55	57.4500
225.92	57.3500
226.30	58.1000
226.67	57.6000
227.05	57.6500
227.42	57.1500
227.79	56.7500
228.17	56.4000
228.54	56.1000
228.91	56.6500
229.29	56.8000
229.66	57.3500
230.03	57.6500
230.41	56.1500
230.78	56.9000
231.15	57.2000
231.53	57.8000
231.90	57.1000
232.27	57.8500
232.65	56.6500
233.02	56.7500
233.39	56.2000
233.77	57.2500
234.14	57.2000
234.51	56.5000
234.89	58.3500
235.26	56.4000
235.63	56.5000
236.01	56.9000
236.38	57.6500
236.75	57.7500
237.12	56.8500
237.50	56.2000
237.87	57.2500
238.24	57.1500
238.62	57.0500
238.99	56.9500
239.36	55.7000
239.73	56.7500
240.11	57.2500
240.48	56.6500
240.85	57.2500
241.23	56.6500
241.60	57.4500
241.97	57.4500
242.34	57.3000
242.72	57.5500
243.09	58.1000
243.46	58.4000
243.83	57.1000
244.21	58.0000
244.58	56.5000
244.95	56.8000
245.32	56.8500
245.70	56.0000
246.07	56.8000
246.44	57.2000
246.81	55.9000
247.18	57.1000
247.56	58.3500
247.93	56.7000
248.30	56.9000
248.67	55.8000
249.04	57.5000
249.42	57.8500
249.79	58.2000
250.16	57.0000
250.53	56.3500
250.90	58.0500
251.28	58.0000
251.65	57.3500
252.02	57.7000
252.39	57.6000
252.76	57.2500
253.14	56.6000
253.51	56.0000
253.88	57.8000
254.25	57.3000
254.62	57.3000
254.99	57.1000
255.37	58.1000
255.74	57.5000
256.11	57.1500
256.48	57.7500
256.85	57.1500
257.22	57.3000
257.59	57.7000
257.97	57.4500
258.34	57.3500
258.71	57.5000
259.08	56.8000
259.45	56.4500
259.82	57.5500
260.19	56.9500
260.56	57.4000
260.94	58.2000
261.31	58.2500
261.68	57.9000
262.05	57.4500
262.42	56.3000
262.79	56.7000
263.16	57.6500
263.53	56.8000
263.90	57.7500
264.28	57.2500
264.65	58.8000
265.02	57.6000
265.39	56.8000
265.76	56.3500
266.13	56.0500
266.50	57.8500
266.87	58.1000
267.24	57.7000
267.61	57.1000
267.98	55.7500
268.35	57.5500
268.72	57.3500
269.09	56.9500
269.46	56.7500
269.84	57.1000
270.21	57.2000
270.58	57.7500
270.95	56.9000
271.32	56.4500
271.69	56.8500
272.06	56.4500
272.43	57.6500
272.80	57.0000
273.17	57.9000
273.54	57.6500
273.91	56.6000
274.28	56.5500
274.65	57.3500
275.02	57.7000
275.39	57.7500
275.76	57.9500
276.13	56.8500
276.50	57.7500
276.87	57.5500
277.24	58.1500
277.61	58.2500
277.98	57.5000
278.35	57.3000
278.72	56.7500
279.09	56.9000
279.46	57.2500
279.83	57.4500
280.20	58.2500
280.57	57.4000
280.94	57.0500
281.31	56.5500
281.67	56.4500
282.04	57.4500
282.41	57.1000
282.78	56.5500
283.15	57.4000
283.52	57.8500
283.89	58.1000
284.26	57.5000
284.63	57.6500
285.00	57.2000
285.37	57.8000
285.74	58.4000
286.11	56.5500
286.48	56.8500
286.85	56.8500
287.21	57.1500
287.58	58.2000
287.95	57.4500
288.32	56.7500
288.69	57.8500
289.06	57.7500
289.43	57.7500
289.80	57.7000
290.17	58.0000
290.54	57.9000
290.90	58.2000
291.27	58.2500
291.64	57.1500
292.01	56.5500
292.38	57.4500
292.75	57.4000
293.12	57.8000
293.48	57.0500
293.85	57.1500
294.22	56.6500
294.59	58.0000
294.96	57.3000
295.33	57.5000
295.70	58.0000
296.06	58.1500
296.43	58.2500
296.80	57.2500
297.17	58.0500
297.54	56.9500
297.91	56.4500
298.27	58.0000
298.64	57.2000
299.01	57.3500
299.38	58.0500
299.75	58.4000
300.11	57.7000
300.48	56.9000
300.85	58.1000
301.22	57.3000
301.59	57.1500
301.95	58.1500
302.32	57.9500
302.69	57.3500
303.06	58.4000
303.43	56.7500
303.79	57.9000
304.16	56.7500
304.53	58.0000
304.90	58.4000
305.26	57.1000
305.63	57.7500
306.00	57.1000
306.37	56.7000
306.73	56.7500
307.10	56.7000
307.47	57.4500
307.84	57.5500
308.20	57.8500
308.57	57.0500
308.94	57.5000
309.31	57.4500
309.67	57.9000
310.04	57.4500
310.41	57.5500
310.77	57.2500
311.14	57.5500
311.51	57.9000
311.88	57.8500
312.24	58.1000
312.61	56.8500
312.98	57.5500
313.34	57.8000
313.71	58.2500
314.08	57.1500
314.44	57.5000
314.81	57.1000
315.18	56.6500
315.55	58.3000
315.91	56.8000
316.28	58.5000
316.65	57.3500
317.01	58.2500
317.38	57.2000
317.75	57.2500
318.11	56.9500
318.48	57.7000
318.84	57.7000
319.21	56.6000
319.58	57.9500
319.94	57.7000
320.31	57.4500
320.68	58.4000
321.04	57.7000
321.41	57.8500
321.78	57.9000
322.14	56.8000
322.51	57.5000
322.87	56.8500
323.24	57.3500
323.61	56.9000
323.97	58.7500
324.34	56.8500
324.70	56.6000
325.07	58.1500
325.44	57.3500
325.80	56.7500
326.17	56.3500
326.53	57.4500
326.90	56.8500
327.27	57.5000
327.63	57.5000
328.00	57.0500
328.36	57.3000
328.73	58.5500
329.09	58.1000
329.46	58.4500
329.83	57.9000
330.19	56.9500
330.56	56.4500
330.92	56.3000
331.29	55.2000
331.65	58.4000
332.02	57.5000
332.38	57.8500
332.75	56.3000
333.11	57.9500
333.48	57.2500
333.84	57.3000
334.21	58.3000
334.58	56.9000
334.94	58.6000
335.31	57.3000
335.67	57.6500
336.04	57.9000
336.40	57.0500
336.77	57.6500
337.13	58.1000
337.50	58.2000
337.86	57.0500
338.22	57.8000
338.59	57.8500
338.95	57.5000
339.32	58.4500
339.68	58.0000
340.05	56.7500
340.41	57.1500
340.78	57.4500
341.14	56.9500
341.51	58.2000
341.87	58.2500
342.24	58.3500
342.60	57.3500
342.96	57.9500
343.33	57.3000
343.69	56.8000
344.06	57.5000
344.42	57.4000
344.79	56.8000
345.15	57.5500
345.51	57.4000
345.88	58.4000
346.24	58.1500
346.61	56.8000
346.97	58.5000
347.34	58.1500
347.70	58.3500
348.06	57.9500
348.43	58.0500
348.79	58.7500
349.16	57.5000
349.52	56.6500
349.88	58.6000
350.25	56.7500
350.61	58.1500
350.97	58.4500
351.34	57.4000
351.70	57.0500
352.07	57.2000
352.43	58.4000
352.79	58.6500
353.16	57.7500
353.52	58.0000
353.88	57.2000
354.25	58.1000
354.61	56.7000
354.97	57.6500
355.34	57.3500
355.70	58.7500
356.06	58.4000
356.43	57.4000
356.79	58.4000
357.15	57.4500
357.52	58.4500
357.88	60.0500
358.24	57.6500
358.60	58.4000
358.97	59.0500
359.33	58.9000
359.69	57.8000
360.06	57.4500
360.42	57.8000
360.78	57.4500
361.14	57.8000
361.51	58.1000
361.87	57.9000
362.23	58.0000
362.60	57.2000
362.96	58.1000
363.32	57.7500
363.68	58.6500
364.05	59.1000
364.41	58.5500
364.77	58.1000
365.13	58.0000
365.50	60.1000
365.86	58.9500
366.22	59.3500
366.58	60.0500
366.95	59.5500
367.31	59.1500
367.67	58.4000
368.03	59.4500
368.39	59.3000
368.76	58.9500
369.12	58.7500
369.48	58.5500
369.84	58.1000
370.20	60.1500
370.57	59.1500
370.93	58.2000
371.29	59.7000
371.65	57.4500
372.01	58.3500
372.38	59.2500
372.74	59.2500
373.10	59.0500
373.46	58.4500
373.82	58.1500
374.18	57.8500
374.55	59.1000
374.91	59.0500
375.27	60.5000
375.63	59.5000
375.99	59.0000
376.35	59.5000
376.71	59.6500
377.08	59.9000
377.44	59.9000
377.80	59.9000
378.16	59.5500
378.52	59.3000
378.88	60.3500
379.24	60.0000
379.60	60.8500
379.97	60.3500
380.33	60.6000
380.69	60.2000
381.05	59.9000
381.41	61.0500
381.77	60.8000
382.13	60.7000
382.49	59.9500
382.85	60.2500
383.21	60.1000
383.57	61.1500
383.94	62.0500
384.30	60.4500
384.66	60.4500
385.02	60.8500
385.38	60.8500
385.74	61.3500
386.10	63.1500
386.46	61.8000
386.82	61.8000
387.18	61.0000
387.54	61.5000
387.90	61.9000
388.26	61.3000
388.62	61.6000
388.98	61.9000
389.34	62.5500
389.70	62.2000
390.06	61.9500
390.42	62.3000
390.78	62.3500
391.14	62.5500
391.50	62.5500
391.86	63.1000
392.22	62.8000
392.58	62.4500
392.94	62.3000
393.30	62.4500
393.66	62.6500
394.02	62.6000
394.38	62.2500
394.74	63.1500
395.10	63.8500
395.46	63.3000
395.82	64.3500
396.18	64.8000
396.54	63.8500
396.90	63.8500
397.26	64.3000
397.62	63.8500
397.98	64.5500
398.34	63.8000
398.70	64.1000
399.05	63.6500
399.41	63.4500
399.77	62.9500
400.13	63.6500
400.49	64.7000
400.85	65.4500
401.21	65.1500
401.57	65.0500
401.93	65.1500
402.29	64.0500
402.65	64.7500
403.00	64.8000
403.36	65.7500
403.72	66.0000
404.08	67.1000
404.44	65.6000
404.80	65.5000
405.16	66.4000
405.52	67.1500
405.87	66.0000
406.23	68.2500
406.59	67.3000
406.95	66.5500
407.31	67.6000
407.67	67.0500
408.03	67.1500
408.38	66.9500
408.74	68.8500
409.10	69.2500
409.46	67.5000
409.82	69.3000
410.17	68.8000
410.53	68.3000
410.89	69.1500
411.25	68.4500
411.61	68.5000
411.97	70.3000
412.32	70.2000
412.68	70.9500
413.04	69.7000
413.40	68.3500
413.75	69.2000
414.11	68.8000
414.47	70.5000
414.83	71.5500
415.19	70.7000
415.54	69.9000
415.90	70.2500
416.26	70.0000
416.62	70.5500
416.97	70.3500
417.33	71.7500
417.69	71.4500
418.05	70.9000
418.40	70.2500
418.76	70.7500
419.12	73.6000
419.48	73.3500
419.83	74.2500
420.19	71.7500
420.55	72.2500
420.90	73.2000
421.26	73.1000
421.62	73.5000
421.98	75.1500
422.33	74.7000
422.69	74.8500
423.05	77.1500
423.40	74.9500
423.76	72.6500
424.12	77.2500
424.47	77.4500
424.83	75.2500
425.19	75.5500
425.54	76.8500
425.90	77.2000
426.26	78.7000
426.61	79.1500
426.97	75.7500
427.33	79.7500
427.68	79.2500
428.04	81.0000
428.40	82.4500
428.75	83.5000
429.11	80.3500
429.47	83.6500
429.82	83.0000
430.18	83.1500
430.53	82.1000
430.89	81.3500
431.25	83.5000
431.60	84.1000
431.96	85.0500
432.31	85.0000
432.67	86.6500
433.03	87.3000
433.38	86.2500
433.74	87.8500
434.09	87.4000
434.45	86.5000
434.81	87.3000
435.16	88.4500
435.52	87.2000
435.87	85.0500
436.23	87.8500
436.58	89.3000
436.94	90.2000
437.30	92.8500
437.65	94.0500
438.01	91.7500
438.36	93.8000
438.72	94.9000
439.07	94.8500
439.43	93.8000
439.78	98.1000
440.14	100.9000
440.49	95.4000
440.85	96.0000
441.20	98.8000
441.56	99.1000
441.91	103.7000
442.27	100.4000
442.62	101.3000
442.98	101.8000
443.33	100.4500
443.69	102.0500
444.04	106.3500
444.40	101.2000
444.75	108.5000
445.11	107.0000
445.46	111.3000
445.82	109.5500
446.17	107.1500
446.53	110.3500
446.88	118.2000
447.23	107.9000
447.59	108.0000
447.94	108.8000
448.30	115.1000
448.65	112.6500
449.01	116.7500
449.36	117.6500
449.72	123.8000
450.07	125.8500
450.42	123.2000
450.78	120.1500
451.13	124.5500
451.49	122.5000
451.84	118.8500
452.19	120.5000
452.55	124.7000
452.90	125.3000
453.26	128.2000
453.61	131.3500
453.96	118.0000
454.32	126.1500
454.67	126.4000
455.02	121.1000
455.38	123.5000
455.73	121.9500
456.09	128.6500
456.44	127.2000
456.79	125.0500
457.15	124.1000
457.50	119.8000
457.85	121.6000
458.21	120.4000
458.56	124.9000
458.91	121.5000
459.27	117.3000
459.62	119.4000
459.97	118.9500
460.32	122.2500
460.68	119.7000
461.03	118.8500
461.38	120.2500
461.74	127.1500
462.09	124.5500
462.44	121.0500
462.80	118.2000
463.15	118.4000
463.50	118.8000
463.85	123.4000
464.21	121.8500
464.56	125.3000
464.91	118.4500
465.26	120.8000
465.62	119.4000
465.97	125.6500
466.32	124.3000
466.67	125.7500
467.03	124.7000
467.38	125.6500
467.73	125.2000
468.08	127.0500
468.44	127.3000
468.79	128.5500
469.14	123.4500
469.49	128.4500
469.85	130.7000
470.20	136.5000
470.55	136.7000
470.90	135.8000
471.25	132.8500
471.61	136.0500
471.96	135.2000
472.31	136.8000
472.66	137.0500
473.01	138.8500
473.36	142.5500
473.72	138.2000
474.07	143.3000
474.42	144.0000
474.77	142.7000
475.12	145.5500
475.47	148.0500
475.83	148.8000
476.18	148.6000
476.53	146.9500
476.88	152.4500
477.23	153.7500
477.58	153.1500
477.93	154.2000
478.28	154.2000
478.64	156.4500
478.99	159.3000
479.34	159.8500
479.69	162.9000
480.04	165.5500
480.39	164.4500
480.74	162.2000
481.09	168.5500
481.44	169.0000
481.79	168.8000
482.15	169.9500
482.50	172.3500
482.85	172.9500
483.20	176.5500
483.55	176.6500
483.90	179.3500
484.25	179.7500
484.60	179.1000
484.95	183.5000
485.30	184.9500
485.65	186.8000
486.00	186.3500
486.35	186.1000
486.70	186.0000
487.05	192.2000
487.40	192.9000
487.75	194.2500
488.10	195.8000
488.45	192.9500
488.80	194.2500
489.15	198.2500
489.50	199.6500
489.85	201.7500
490.20	198.4000
490.55	204.1000
490.90	204.2500
491.25	206.3500
491.60	206.1000
491.95	206.8000
492.30	211.0500
492.65	209.6000
493.00	210.2000
493.35	210.0500
493.70	212.9000
494.05	214.3500
494.40	216.2000
494.75	218.0500
495.10	217.0000
495.45	219.8000
495.80	217.9000
496.15	222.5500
496.50	220.9000
496.84	221.1000
497.19	221.8000
497.54	224.1500
497.89	224.1500
498.24	225.6500
498.59	228.1000
498.94	226.0500
499.29	229.1500
499.64	229.0000
499.99	232.0500
500.33	231.0500
500.68	234.0000
501.03	234.6000
501.38	234.5000
501.73	238.0500
502.08	237.2000
502.43	240.3000
502.77	239.6500
503.12	240.8500
503.47	240.5500
503.82	244.0500
504.17	244.3000
504.52	246.9500
504.86	248.1000
505.21	250.0500
505.56	250.4500
505.91	249.9500
506.26	250.6500
506.61	254.6500
506.95	255.0500
507.30	253.9500
507.65	260.3000
508.00	257.8500
508.35	258.0500
508.69	260.8000
509.04	262.7000
509.39	263.2500
509.74	261.4500
510.08	263.8000
510.43	266.6500
510.78	267.0500
511.13	268.4500
511.47	271.3000
511.82	272.5000
512.17	270.4500
512.52	274.8000
512.86	276.0000
513.21	277.9500
513.56	278.1500
513.91	280.1500
514.25	280.6000
514.60	283.3500
514.95	285.3000
515.30	284.2500
515.64	282.7000
515.99	288.6000
516.34	291.3000
516.68	292.1500
517.03	292.3500
517.38	292.5500
517.72	296.6000
518.07	295.9500
518.42	297.2000
518.76	300.0500
519.11	302.0500
519.46	302.5500
519.80	302.4500
520.15	303.7500
520.50	305.4500
520.84	307.4500
521.19	308.1500
521.54	308.7000
521.88	307.3500
522.23	312.0500
522.58	309.8500
522.92	314.4500
523.27	315.0500
523.61	314.3500
523.96	313.6500
524.31	319.1000
524.65	321.0000
525.00	319.3500
525.34	315.9000
525.69	318.0000
526.04	322.6500
526.38	322.4500
526.73	321.5000
527.07	325.5000
527.42	324.5500
527.76	329.3500
528.11	328.1500
528.46	328.9000
528.80	329.1000
529.15	327.9500
529.49	328.4000
529.84	330.8500
530.18	333.5000
530.53	332.6000
530.87	331.4500
531.22	332.7500
531.56	331.1000
531.91	333.3500
532.25	333.1000
532.60	332.3500
532.94	334.0500
533.29	336.1000
533.63	334.3000
533.98	333.5000
534.32	337.1500
534.67	340.0500
535.01	342.4500
535.36	338.5500
535.70	342.4000
536.05	341.5000
536.39	345.4000
536.74	340.9000
537.08	340.2500
537.43	340.0000
537.77	342.7500
538.12	347.0000
538.46	346.7500
538.80	347.1000
539.15	345.7500
539.49	348.9000
539.84	351.8000
540.18	349.0500
540.53	350.0500
540.87	350.1000
541.21	354.8500
541.56	353.3000
541.90	355.4500
542.25	352.6500
542.59	352.0500
542.93	356.8000
543.28	353.4000
543.62	357.1000
543.97	355.1000
544.31	358.3000
544.65	358.8000
545.00	358.2500
545.34	359.1500
545.68	362.5000
546.03	360.1500
546.37	360.8000
546.71	364.3500
547.06	366.3000
547.40	365.6000
547.74	369.2500
548.09	368.2500
548.43	370.5500
548.77	370.5500
549.12	368.0500
549.46	369.2000
549.80	373.6500
550.15	371.6500
550.49	373.7000
550.83	373.8000
551.17	377.2000
551.52	376.4000
551.86	376.4500
552.20	377.9500
552.55	381.0500
552.89	381.1500
553.23	382.1000
553.57	383.7000
553.92	384.9500
554.26	385.9000
554.60	382.0500
554.94	386.0000
555.29	385.5500
555.63	388.1500
555.97	392.3500
556.31	389.1500
556.66	391.3000
557.00	389.3500
557.34	393.5000
557.68	394.3000
558.02	396.9500
558.37	398.4500
558.71	397.2500
559.05	398.3500
559.39	398.9500
559.73	402.5000
560.08	400.4500
560.42	402.2000
560.76	404.4000
561.10	404.0000
561.44	399.4000
561.78	402.4000
562.13	403.2000
562.47	404.5000
562.81	407.8500
563.15	407.4500
563.49	411.1500
563.83	410.5500
564.17	412.7500
564.52	411.9500
564.86	414.6000
565.20	412.1500
565.54	413.7500
565.88	412.7500
566.22	415.4000
566.56	413.3000
566.90	415.6500
567.24	417.7500
567.59	417.5000
567.93	417.9500
568.27	414.6000
568.61	422.9500
568.95	421.3000
569.29	419.4000
569.63	422.1500
569.97	424.6000
570.31	417.8500
570.65	421.4000
570.99	422.6500
571.33	424.8000
571.67	422.1000
572.01	423.3500
572.35	423.7000
572.69	425.7500
573.03	425.0000
573.37	429.2000
573.71	423.7000
574.05	423.9000
574.39	422.0500
574.73	427.7500
575.07	423.6500
575.41	427.6000
575.75	426.8500
576.09	432.0500
576.43	428.2000
576.77	428.6000
577.11	424.6000
577.45	426.7000
577.79	430.1500
578.13	430.3000
578.47	427.2500
578.81	429.2500
579.15	425.7500
579.49	431.7000
579.83	433.1000
580.17	433.6500
580.51	432.8000
580.85	433.0000
581.19	434.1500
581.53	430.7500
581.87	430.9000
582.20	430.6500
582.54	430.6000
582.88	431.8000
583.22	430.9500
583.56	429.6500
583.90	433.9500
584.24	432.7000
584.58	431.0500
584.92	434.1500
585.25	435.2000
585.59	432.9000
585.93	437.1500
586.27	436.0000
586.61	432.3500
586.95	435.4000
587.29	436.6500
587.62	436.2000
587.96	434.0500
588.30	439.5000
588.64	436.3500
588.98	437.1000
589.31	437.5500
589.65	438.3000
589.99	436.3500
590.33	436.9000
590.67	439.7500
591.01	439.9500
591.34	442.5500
591.68	441.4000
592.02	442.1500
592.36	442.1500
592.69	439.5500
593.03	441.5000
593.37	440.9500
593.71	443.3000
594.04	442.3000
594.38	441.3000
594.72	442.6500
595.06	440.3500
595.39	443.2000
595.73	445.5000
596.07	447.2000
596.41	446.5500
596.74	450.1000
597.08	445.3500
597.42	443.0500
597.76	443.7500
598.09	447.9500
598.43	444.1000
598.77	447.8000
599.10	451.5000
599.44	450.1500
599.78	449.5500
600.11	447.7000
600.45	449.6500
600.79	448.6000
601.12	448.9500
601.46	452.3000
601.80	454.0000
602.13	451.7000
602.47	455.3000
602.81	451.3000
603.14	451.0000
603.48	452.5000
603.82	453.8500
604.15	453.6500
604.49	453.3500
604.82	452.3000
605.16	454.8500
605.50	456.3000
605.83	460.4500
