>>>>>Begin Spectral Data<<<<<
179.00	0.0000
179.38	0.0000
179.75	55.5500
180.13	55.3500
180.51	55.7000
180.88	55.6000
181.26	55.6500
181.64	57.1500
182.02	55.9000
182.39	57.3000
182.77	56.3000
183.15	55.4500
183.52	56.4500
183.90	55.7500
184.28	55.7500
184.65	56.4000
185.03	56.3500
185.41	55.2000
185.78	55.4000
186.16	55.6000
186.53	55.7000
186.91	55.8000
187.29	57.3000
187.66	56.6000
188.04	56.6500
188.42	56.8500
188.79	55.4500
189.17	56.6500
189.55	55.7000
189.92	56.4000
190.30	56.1000
190.67	56.0500
191.05	55.4500
191.43	55.8000
191.80	56.8000
192.18	56.4500
192.56	57.0000
192.93	57.0000
193.31	56.6500
193.68	55.6500
194.06	56.3000
194.44	56.8500
194.81	57.4000
195.19	57.2500
195.56	56.8500
195.94	56.8500
196.32	56.4500
196.69	57.0000
197.07	56.6000
197.44	56.5000
197.82	57.2500
198.19	56.9000
198.57	56.0500
198.95	57.1000
199.32	56.1500
199.70	57.0000
200.07	56.0000
200.45	57.3500
200.82	56.9000
201.20	55.8500
201.57	56.9000
201.95	57.2000
202.33	56.7500
202.70	57.3000
203.08	56.4000
203.45	57.4000
203.83	56.9500
204.20	56.0500
204.58	57.3000
204.95	57.2000
205.33	57.0000
205.70	56.7000
206.08	57.3500
206.45	58.1500
206.83	56.1000
207.20	56.7000
207.58	55.8500
207.95	57.1500
208.33	55.7000
208.70	56.5000
209.08	56.7500
209.45	56.8500
209.83	56.8500
210.20	56.8000
210.58	57.0000
210.95	57.1500
211.33	57.5500
211.70	57.4000
212.08	57.3000
212.45	56.8500
212.83	57.2500
213.20	57.7000
213.58	57.0500
213.95	57.3000
214.33	56.7000
214.70	57.7500
215.07	56.8500
215.45	57.5000
215.82	56.9500
216.20	57.5500
216.57	56.3000
216.95	58.2000
217.32	58.8500
217.70	57.3500
218.07	57.9500
218.44	57.5000
218.82	57.9500
219.19	56.8000
219.57	56.7500
219.94	56.9000
220.32	57.4500
220.69	59.3000
221.06	57.2500
221.44	57.4000
221.81	57.7500
222.19	57.8000
222.56	57.2500
222.93	57.7500
223.31	56.9000
223.68	58.1000
224.06	57.4500
224.43	57.2500
224.80	57.4500
225.18	56.8500
225.55	56.8500
225.92	57.4000
226.30	57.2500
226.67	57.5500
227.05	58.1500
227.42	57.3000
227.79	57.2000
228.17	57.0000
228.54	57.1500
228.91	58.2500
229.29	57.2500
229.66	55.6000
230.03	56.4500
230.41	56.5500
230.78	56.6500
231.15	56.8000
231.53	57.1500
231.90	57.5500
232.27	57.4000
232.65	56.8500
233.02	56.2500
233.39	57.6000
233.77	57.2500
234.14	56.6500
234.51	57.7000
234.89	56.3500
235.26	57.7000
235.63	57.4500
236.01	56.7000
236.38	57.1500
236.75	56.9000
237.12	57.2000
237.50	57.0000
237.87	56.8500
238.24	56.9000
238.62	57.7000
238.99	57.0500
239.36	57.2000
239.73	57.8500
240.11	57.1500
240.48	56.7500
240.85	55.7500
241.23	57.4500
241.60	57.8500
241.97	57.5500
242.34	57.7500
242.72	56.9500
243.09	57.3500
243.46	56.7000
243.83	57.2500
244.21	57.4500
244.58	56.0000
244.95	57.6000
245.32	57.2500
245.70	57.1000
246.07	57.7500
246.44	56.9500
246.81	56.4000
247.18	57.5500
247.56	56.8000
247.93	57.6500
248.30	56.8500
248.67	57.2500
249.04	57.3000
249.42	56.7500
249.79	56.8500
250.16	57.6000
250.53	57.4500
250.90	56.8500
251.28	57.3500
251.65	56.9000
252.02	57.8000
252.39	57.2000
252.76	56.6000
253.14	56.1000
253.51	56.4500
253.88	56.9500
254.25	56.2500
254.62	56.5000
254.99	56.4500
255.37	58.2500
255.74	57.1500
256.11	56.2500
256.48	57.7000
256.85	57.3500
257.22	57.4500
257.59	56.7500
257.97	57.2500
258.34	56.2000
258.71	57.6000
259.08	57.2000
259.45	57.0000
259.82	57.1500
260.19	57.1000
260.56	56.1500
260.94	58.2000
261.31	57.7500
261.68	57.4000
262.05	58.6500
262.42	56.3500
262.79	57.0500
263.16	57.2000
263.53	56.8000
263.90	57.1500
264.28	57.3500
264.65	57.6000
265.02	56.9000
265.39	56.7500
265.76	57.1500
266.13	57.7000
266.50	56.7500
266.87	57.3500
267.24	57.7500
267.61	57.9500
267.98	57.3000
268.35	56.5000
268.72	57.7500
269.09	57.7500
269.46	56.4000
269.84	56.8000
270.21	58.3000
270.58	57.7500
270.95	58.1000
271.32	57.1000
271.69	57.2000
272.06	58.1000
272.43	57.1500
272.80	58.0500
273.17	58.3000
273.54	57.5500
273.91	57.8500
274.28	58.2500
274.65	56.7500
275.02	56.9000
275.39	57.1000
275.76	57.8000
276.13	57.3000
276.50	57.2000
276.87	57.5500
277.24	58.9000
277.61	57.9000
277.98	57.3000
278.35	58.0000
278.72	57.5000
279.09	57.2000
279.46	57.2500
279.83	57.8000
280.20	57.9500
280.57	56.9500
280.94	57.8500
281.31	57.5500
281.67	57.3000
282.04	57.6000
282.41	57.4500
282.78	56.5000
283.15	56.9500
283.52	57.5000
283.89	58.2000
284.26	57.1000
284.63	57.9500
285.00	56.6500
285.37	57.5500
285.74	57.8000
286.11	57.8500
286.48	57.0000
286.85	57.1000
287.21	58.2500
287.58	56.9000
287.95	57.3500
288.32	57.7500
288.69	57.1000
289.06	57.2000
289.43	57.2500
289.80	56.6000
290.17	56.7000
290.54	56.5000
290.90	57.3500
291.27	58.3500
291.64	56.6500
292.01	57.5000
292.38	57.4500
292.75	57.3500
293.12	58.5000
293.48	57.1000
293.85	57.0500
294.22	56.9500
294.59	57.4500
294.96	58.0000
295.33	58.0500
295.70	57.9500
296.06	57.7000
296.43	58.4500
296.80	57.7000
297.17	57.1500
297.54	57.7500
297.91	57.6000
298.27	57.8000
298.64	57.1000
299.01	57.3000
299.38	57.1500
299.75	56.5000
300.11	57.9000
300.48	57.1500
300.85	57.6500
301.22	58.2000
301.59	57.5500
301.95	57.5000
302.32	56.7500
302.69	58.1000
303.06	56.7000
303.43	57.3500
303.79	58.2500
304.16	58.1500
304.53	56.9500
304.90	57.4500
305.26	57.1000
305.63	58.4500
306.00	58.0500
306.37	57.3000
306.73	58.4500
307.10	57.0500
307.47	56.9500
307.84	57.1000
308.20	57.3000
308.57	56.8000
308.94	58.3000
309.31	57.5000
309.67	56.7000
310.04	57.7000
310.41	57.9500
310.77	57.7000
311.14	57.8500
311.51	57.0000
311.88	57.3500
312.24	57.0000
312.61	57.0500
312.98	57.2000
313.34	57.4500
313.71	58.5000
314.08	57.6500
314.44	57.0500
314.81	57.9000
315.18	57.1000
315.55	58.3500
315.91	58.7000
316.28	58.9500
316.65	58.6000
317.01	58.5000
317.38	57.5500
317.75	57.8500
318.11	58.0000
318.48	57.9500
318.84	57.3500
319.21	56.1500
319.58	56.8000
319.94	56.8000
320.31	57.7000
320.68	58.1000
321.04	56.9000
321.41	57.6500
321.78	57.6500
322.14	57.9500
322.51	57.5500
322.87	57.2500
323.24	57.5500
323.61	58.3000
323.97	57.5500
324.34	57.7000
324.70	57.5500
325.07	57.0500
325.44	57.2500
325.80	58.3500
326.17	57.7500
326.53	56.9500
326.90	56.6000
327.27	57.3500
327.63	57.7500
328.00	56.5000
328.36	56.6500
328.73	58.5500
329.09	57.1500
329.46	58.2500
329.83	58.5500
330.19	56.7000
330.56	57.6000
330.92	57.7500
331.29	57.0500
331.65	57.9000
332.02	57.6000
332.38	57.3500
332.75	58.3000
333.11	57.4500
333.48	57.3500
333.84	57.2500
334.21	57.8000
334.58	57.3500
334.94	57.1000
335.31	57.3000
335.67	56.9000
336.04	57.0500
336.40	57.2000
336.77	57.0000
337.13	57.0500
337.50	57.3500
337.86	57.3000
338.22	57.0000
338.59	57.6500
338.95	59.1500
339.32	57.6500
339.68	57.5500
340.05	56.7500
340.41	57.4500
340.78	58.1000
341.14	58.0500
341.51	56.6000
341.87	57.2500
342.24	57.1000
342.60	58.0500
342.96	58.0000
343.33	57.7500
343.69	57.2000
344.06	58.4000
344.42	57.0000
344.79	57.2500
345.15	57.8000
345.51	57.7500
345.88	57.4000
346.24	57.2000
346.61	57.3500
346.97	58.1500
347.34	58.4500
347.70	56.9000
348.06	57.6000
348.43	57.2500
348.79	56.7000
349.16	57.7500
349.52	58.1500
349.88	58.0000
350.25	57.9000
350.61	57.7500
350.97	57.6000
351.34	58.0000
351.70	57.8000
352.07	58.2500
352.43	57.4500
352.79	57.5000
353.16	57.2000
353.52	58.1500
353.88	57.7000
354.25	57.7000
354.61	58.2000
354.97	56.9000
355.34	57.3000
355.70	57.9000
356.06	56.2000
356.43	57.0000
356.79	57.6000
357.15	58.2500
357.52	57.6500
357.88	58.2000
358.24	58.3500
358.60	57.4000
358.97	58.2500
359.33	58.1000
359.69	58.0500
360.06	57.7500
360.42	57.9000
360.78	56.9000
361.14	56.5000
361.51	57.8000
361.87	58.8000
362.23	57.7500
362.60	58.2000
362.96	57.3000
363.32	57.1000
363.68	58.1000
364.05	57.8500
364.41	57.2000
364.77	57.6500
365.13	56.9500
365.50	58.3500
365.86	56.5500
366.22	57.9000
366.58	58.0500
366.95	58.0000
367.31	57.7500
367.67	57.3000
368.03	56.9000
368.39	56.9000
368.76	57.3500
369.12	57.3000
369.48	57.4000
369.84	57.0500
370.20	57.8500
370.57	57.1500
370.93	58.0500
371.29	57.5500
371.65	57.7500
372.01	57.3500
372.38	57.4000
372.74	57.8500
373.10	57.8000
373.46	56.7000
373.82	57.2500
374.18	56.9500
374.55	58.0000
374.91	58.1000
375.27	57.8000
375.63	57.6000
375.99	57.5000
376.35	58.1000
376.71	57.3500
377.08	57.5500
377.44	57.2500
377.80	58.0500
378.16	57.7000
378.52	57.5500
378.88	57.6500
379.24	57.0000
379.60	57.9000
379.97	57.9000
380.33	58.1000
380.69	57.8500
381.05	57.8000
381.41	57.8500
381.77	58.2500
382.13	57.5500
382.49	56.7500
382.85	57.0500
383.21	57.5000
383.57	57.9000
383.94	57.9500
384.30	57.4000
384.66	57.4000
385.02	57.5000
385.38	57.6000
385.74	58.0500
386.10	58.1500
386.46	57.7000
386.82	58.2000
387.18	58.5500
387.54	58.0000
387.90	56.4500
388.26	57.6000
388.62	58.5000
388.98	57.9500
389.34	57.3500
389.70	57.7500
390.06	57.7000
390.42	58.0500
390.78	57.5500
391.14	58.2000
391.50	57.6500
391.86	57.9000
392.22	57.6500
392.58	58.1000
392.94	58.1500
393.30	57.5000
393.66	57.6000
394.02	57.3000
394.38	57.0500
394.74	57.6500
395.10	58.0000
395.46	57.7500
395.82	57.4000
396.18	57.5500
396.54	57.2500
396.90	57.9000
397.26	58.2500
397.62	58.2000
397.98	58.3000
398.34	58.5500
398.70	58.0000
399.05	58.0000
399.41	58.8500
399.77	58.9000
400.13	58.2000
400.49	58.3500
400.85	57.6000
401.21	57.7500
401.57	58.0000
401.93	57.8000
402.29	58.3000
402.65	58.7000
403.00	59.0000
403.36	59.1500
403.72	58.2500
404.08	59.4500
404.44	58.5500
404.80	59.2500
405.16	59.0000
405.52	59.1000
405.87	60.0000
406.23	59.3000
406.59	60.1500
406.95	59.0500
407.31	59.6000
407.67	60.9500
408.03	60.6500
408.38	59.3000
408.74	61.7500
409.10	61.2000
409.46	62.1000
409.82	62.8500
410.17	62.9000
410.53	62.6500
410.89	63.0500
411.25	62.7500
411.61	64.4000
411.97	64.2000
412.32	65.7000
412.68	66.3000
413.04	65.5500
413.40	65.1500
413.75	66.3500
414.11	67.5500
414.47	67.9000
414.83	69.3000
415.19	69.8500
415.54	70.1500
415.90	71.4500
416.26	72.4500
416.62	74.5000
416.97	74.3500
417.33	76.6500
417.69	78.0500
418.05	77.8000
418.40	77.5000
418.76	79.7000
419.12	83.3000
419.48	84.0500
419.83	86.7500
420.19	83.1500
420.55	85.7000
420.90	92.4000
421.26	92.2000
421.62	93.2000
421.98	96.6500
422.33	100.1000
422.69	102.8500
423.05	107.2500
423.40	102.7500
423.76	101.8000
424.12	111.8500
424.47	116.2000
424.83	117.6000
425.19	119.1500
425.54	121.4000
425.90	127.8500
426.26	135.8500
426.61	138.6500
426.97	126.5000
427.33	142.4000
427.68	143.9500
428.04	157.0500
428.40	168.9000
428.75	175.7500
429.11	167.1000
429.47	186.7000
429.82	189.4500
430.18	193.7500
430.53	192.5500
430.89	200.7000
431.25	211.0500
431.60	222.9000
431.96	223.5500
432.31	225.5000
432.67	250.8500
433.03	261.0000
433.38	257.7000
433.74	273.8000
434.09	275.9500
434.45	272.3000
434.81	278.1500
435.16	308.7500
435.52	293.4500
435.87	293.6000
436.23	305.0500
436.58	320.2000
436.94	345.4000
437.30	351.0500
437.65	378.2000
438.01	374.6500
438.36	388.3000
438.72	394.1500
439.07	392.3000
439.43	408.3000
439.78	450.2000
440.14	478.3000
440.49	446.8000
440.85	463.7000
441.20	495.9000
441.56	498.3000
441.91	556.8000
442.27	520.1500
442.62	537.6500
442.98	568.1500
443.33	563.3000
443.69	583.6000
444.04	581.4000
444.40	570.4500
444.75	646.3500
445.11	663.0500
445.46	693.3500
445.82	696.5500
446.17	654.0500
446.53	710.6500
446.88	783.7500
447.23	655.2000
447.59	659.8000
447.94	657.3500
448.30	713.6500
448.65	685.0500
449.01	724.9000
449.36	713.6500
449.72	767.1000
450.07	780.0500
450.42	739.2000
450.78	686.5000
451.13	708.4000
451.49	660.9000
451.84	621.7500
452.19	615.1000
452.55	633.2000
452.90	609.4000
453.26	632.9500
453.61	637.1500
453.96	519.2500
454.32	560.8000
454.67	547.4000
455.02	491.4000
455.38	498.9000
455.73	478.2000
456.09	504.6000
456.44	491.5500
456.79	469.5000
457.15	458.0000
457.50	423.2500
457.85	429.5500
458.21	413.0500
458.56	426.7500
458.91	407.2500
459.27	376.5000
459.62	385.0000
459.97	381.9500
460.32	389.6000
460.68	384.7500
461.03	374.5000
461.38	375.7000
461.74	403.5500
462.09	384.8000
462.44	361.2000
462.80	350.3500
463.15	350.2000
463.50	343.3500
463.85	363.1000
464.21	343.1000
464.56	350.8500
464.91	323.2000
465.26	328.6000
465.62	320.6000
465.97	334.2500
466.32	323.8000
466.67	316.7000
467.03	311.5500
467.38	309.9000
467.73	307.3000
468.08	307.1000
468.44	302.3500
468.79	295.4500
469.14	274.4000
469.49	285.5000
469.85	285.8000
470.20	299.2500
470.55	295.3500
470.90	291.1000
471.25	275.1000
471.61	277.1000
471.96	275.6000
472.31	278.2500
472.66	273.5000
473.01	279.1000
473.36	282.1000
473.72	274.9000
474.07	278.4000
474.42	279.7000
474.77	276.1500
475.12	284.5500
475.47	288.5000
475.83	288.8500
476.18	287.1000
476.53	284.2500
476.88	297.2000
477.23	298.3500
477.58	295.9500
477.93	301.8500
478.28	298.3000
478.64	305.3000
478.99	310.7500
479.34	317.2500
479.69	320.8500
480.04	329.2000
480.39	329.6500
480.74	322.4000
481.09	340.1000
481.44	342.6500
481.79	340.1000
482.15	343.1000
482.50	351.4500
482.85	354.4000
483.20	364.8500
483.55	363.3500
483.90	373.1000
484.25	374.5000
484.60	374.3000
484.95	382.0500
485.30	385.5500
485.65	392.6000
486.00	397.1500
486.35	395.2500
486.70	400.5500
487.05	416.5500
487.40	416.4500
487.75	421.8000
488.10	425.4000
488.45	428.1500
488.80	431.7000
489.15	443.1500
489.50	447.4500
489.85	450.9000
490.20	454.6000
490.55	465.7000
490.90	469.0000
491.25	473.5500
491.60	473.5500
491.95	479.4500
492.30	484.7500
492.65	496.4500
493.00	497.9500
493.35	500.5000
493.70	508.6000
494.05	516.2000
494.40	522.9500
494.75	524.9500
495.10	528.1000
495.45	536.2000
495.80	540.0500
496.15	548.9000
496.50	548.8000
496.84	546.3500
497.19	551.5500
497.54	561.2500
497.89	566.4000
498.24	568.3500
498.59	576.8500
498.94	571.6500
499.29	580.0500
499.64	583.2000
499.99	589.9500
500.33	594.1000
500.68	597.8000
501.03	600.3000
501.38	604.5000
501.73	614.9000
502.08	610.7500
502.43	618.6500
502.77	620.5000
503.12	627.5000
503.47	629.4500
503.82	635.4500
504.17	637.7500
504.52	645.8500
504.86	648.5000
505.21	658.2000
505.56	654.8000
505.91	658.1500
506.26	659.7500
506.61	667.4000
506.95	667.8500
507.30	671.2000
507.65	679.2500
508.00	678.2000
508.35	680.4500
508.69	685.6500
509.04	691.5500
509.39	687.6000
509.74	689.3000
510.08	692.1000
510.43	698.4000
510.78	701.1000
511.13	704.8000
511.47	705.3000
511.82	711.3500
512.17	709.7500
512.52	715.8500
512.86	720.4500
513.21	723.7000
513.56	721.4500
513.91	728.3000
514.25	730.7500
514.60	733.4000
514.95	735.9000
515.30	734.1500
515.64	731.6500
515.99	743.6500
516.34	745.0000
516.68	748.0500
517.03	746.7000
517.38	749.4000
517.72	758.8500
518.07	754.1500
518.42	753.8000
518.76	760.8500
519.11	760.7500
519.46	764.1500
519.80	760.0000
520.15	760.0000
520.50	762.1500
520.84	762.8500
521.19	768.6000
521.54	767.7000
521.88	763.1500
522.23	771.4000
522.58	765.1500
522.92	767.5000
523.27	769.3500
523.61	766.6000
523.96	768.9500
524.31	774.7000
524.65	774.1500
525.00	771.7000
525.34	761.0000
525.69	760.1000
526.04	773.1000
526.38	770.2500
526.73	767.8000
527.07	772.1500
527.42	765.3500
527.76	768.9500
528.11	772.5500
528.46	766.0500
528.80	762.5000
529.15	758.8500
529.49	755.5000
529.84	757.1000
530.18	753.0000
530.53	761.3000
530.87	759.2500
531.22	752.3000
531.56	753.3000
531.91	753.4500
532.25	749.3500
532.60	747.0500
532.94	749.9500
533.29	741.4500
533.63	737.3500
533.98	734.0500
534.32	741.0000
534.67	745.5000
535.01	742.1000
535.36	736.9000
535.70	741.3000
536.05	740.5500
536.39	743.9000
536.74	726.6500
537.08	727.7000
537.43	719.1000
537.77	721.2500
538.12	728.3500
538.46	725.7500
538.80	724.1000
539.15	717.2500
539.49	724.3000
539.84	727.0000
540.18	723.7000
540.53	716.7500
540.87	715.1000
541.21	721.6500
541.56	711.6500
541.90	716.2500
542.25	710.4500
542.59	705.8500
542.93	712.8500
543.28	702.1500
543.62	705.3000
543.97	700.6000
544.31	699.4500
544.65	695.5500
545.00	701.7500
545.34	700.7000
545.68	696.1500
546.03	692.2500
546.37	695.9000
546.71	693.8500
547.06	692.1000
547.40	691.5500
547.74	695.4500
548.09	687.9500
548.43	686.2500
548.77	683.7000
549.12	682.4500
549.46	680.0000
549.80	681.1500
550.15	683.7500
550.49	679.2000
550.83	677.1500
551.17	675.6500
551.52	672.6000
551.86	669.9000
552.20	671.3500
552.55	672.4000
552.89	669.3000
553.23	669.0500
553.57	669.7000
553.92	665.6500
554.26	670.2000
554.60	662.4000
554.94	658.3000
555.29	661.1000
555.63	662.2500
555.97	661.2000
556.31	656.8000
556.66	656.6500
557.00	651.8000
557.34	655.5000
557.68	654.5000
558.02	652.1000
558.37	651.3000
558.71	644.3000
559.05	644.6500
559.39	642.7500
559.73	642.8500
560.08	642.4500
560.42	640.9000
560.76	637.9000
561.10	633.8000
561.44	633.8000
561.78	636.8500
562.13	633.4000
562.47	629.3000
562.81	629.5500
563.15	627.6500
563.49	624.4500
563.83	626.3500
564.17	623.4000
564.52	618.4000
564.86	619.9500
565.20	617.0000
565.54	615.4000
565.88	610.4500
566.22	611.7000
566.56	604.0000
566.90	610.9000
567.24	603.6500
567.59	601.5500
567.93	600.9000
568.27	599.2000
568.61	598.8500
568.95	596.5000
569.29	592.4000
569.63	595.4500
569.97	590.1000
570.31	578.9500
570.65	583.3000
570.99	584.5500
571.33	584.1000
571.67	575.6500
572.01	576.9000
572.35	576.9000
572.69	571.9000
573.03	573.2000
573.37	566.7000
573.71	565.1500
574.05	561.2500
574.39	558.4000
574.73	560.8000
575.07	554.1000
575.41	555.3500
575.75	553.8500
576.09	554.6000
576.43	551.3500
576.77	548.8500
577.11	542.8500
577.45	542.8000
577.79	536.5000
578.13	541.0000
578.47	531.8000
578.81	532.2500
579.15	531.3000
579.49	533.3000
579.83	526.9500
580.17	527.8500
580.51	522.6500
580.85	522.4000
581.19	520.8000
581.53	516.0000
581.87	510.6500
582.20	511.8000
582.54	512.0000
582.88	506.6000
583.22	503.8500
583.56	499.8000
583.90	503.2500
584.24	496.9000
584.58	494.7500
584.92	496.6500
585.25	495.1000
585.59	492.7500
585.93	489.2000
586.27	491.5500
586.61	480.7500
586.95	484.1500
587.29	483.2000
587.62	476.7000
587.96	475.2000
588.30	480.7500
588.64	471.6500
588.98	469.4500
589.31	469.1500
589.65	465.8500
589.99	463.0500
590.33	461.0000
590.67	462.0500
591.01	459.8500
591.34	457.0500
591.68	455.1500
592.02	453.6000
592.36	451.5500
592.69	447.0500
593.03	445.9000
593.37	445.5000
593.71	443.4500
594.04	438.7000
594.38	436.8000
594.72	438.8500
595.06	436.2000
595.39	432.9000
595.73	431.5000
596.07	433.1000
596.41	430.7000
596.74	429.5000
597.08	424.8000
597.42	421.7000
597.76	419.8500
598.09	421.0500
598.43	414.1000
598.77	415.1000
599.10	414.5000
599.44	411.6000
599.78	408.4500
600.11	408.2000
600.45	408.3000
600.79	404.6000
601.12	401.1000
601.46	402.9500
601.80	402.3500
602.13	393.6500
602.47	392.1000
602.81	393.0000
603.14	389.2500
603.48	391.1000
603.82	387.8000
604.15	384.6000
604.49	383.0500
604.82	380.4500
605.16	381.3000
605.50	374.8000
605.83	376.4500
606.17	374.2500
606.50	373.0500
606.84	367.4000
607.18	366.9000
607.51	365.3000
607.85	362.8500
608.18	359.9500
608.52	360.7500
608.86	361.5500
609.19	355.8500
609.53	351.2500
609.86	353.7500
610.20	349.0000
610.53	347.7000
610.87	345.0500
611.20	346.1500
611.54	339.8500
611.87	339.1500
612.21	338.1500
612.54	336.2000
612.88	331.8500
